Data from USB4F104151__0__12-26-50-755.txt Node

Date: Fri Mar 14 12:26:50 EDT 2025
User: louis
Spectrometer: USB4F10415
Trigger mode: 4
Integration Time (sec): 2.000000E-2
Scans to average: 1
Electric dark correction enabled: true
Nonlinearity correction enabled: false
Boxcar width: 0
XAxis mode: Wavelengths
Number of Pixels in Spectrum: 3648
>>>>>Begin Spectral Data<<<<<
178.204	-25.26
178.424	-25.26
178.644	-25.26
178.864	-6.83
179.084	-19.11
179.304	-12.97
179.524	-39.59
179.744	44.37
179.964	89.43
180.184	-4.78
180.404	27.99
180.624	-39.59
180.844	44.37
181.064	-27.31
181.283	-82.6
181.503	-33.45
181.723	34.13
181.943	5.46
182.163	17.75
182.383	-6.83
182.602	40.28
182.822	19.8
183.042	-4.78
183.262	11.61
183.482	-2.73
183.701	68.95
183.921	-2.73
184.141	-12.97
184.361	107.86
184.58	30.04
184.8	25.94
185.02	-33.45
185.239	75.09
185.459	-6.83
185.679	21.84
185.898	-35.5
186.118	34.13
186.338	-58.03
186.557	19.8
186.777	23.89
186.997	-0.68
187.216	66.9
187.436	15.7
187.655	32.08
187.875	-4.78
188.095	60.76
188.314	-6.83
188.534	83.28
188.753	-15.02
188.973	17.75
189.192	23.89
189.412	118.1
189.631	30.04
189.851	-2.73
190.07	109.91
190.29	-25.26
190.509	58.71
190.729	9.56
190.948	46.42
191.168	173.39
191.387	64.85
191.607	44.37
191.826	77.14
192.045	68.95
192.265	-0.68
192.484	3.41
192.704	-15.02
192.923	-15.02
193.142	50.52
193.362	13.65
193.581	93.52
193.8	23.89
194.02	-0.68
194.239	34.13
194.458	27.99
194.678	-29.35
194.897	87.38
195.116	-58.03
195.335	1.37
195.555	114
195.774	27.99
195.993	-53.93
196.212	-17.07
196.432	-39.59
196.651	83.28
196.87	50.52
197.089	32.08
197.308	36.18
197.528	73.04
197.747	34.13
197.966	52.56
198.185	54.61
198.404	13.65
198.623	19.8
198.842	34.13
199.062	75.09
199.281	-25.26
199.5	21.84
199.719	40.28
199.938	46.42
200.157	36.18
200.376	77.14
200.595	105.81
200.814	17.75
201.033	30.04
201.252	9.56
201.471	62.8
201.69	116.05
201.909	-6.83
202.128	21.84
202.347	75.09
202.566	66.9
202.785	-12.97
203.004	-96.94
203.223	58.71
203.442	68.95
203.661	17.75
203.879	-19.11
204.098	48.47
204.317	-39.59
204.536	68.95
204.755	9.56
204.974	17.75
205.193	32.08
205.411	91.48
205.63	34.13
205.849	40.28
206.068	13.65
206.287	30.04
206.505	111.96
206.724	25.94
206.943	-23.21
207.162	13.65
207.381	52.56
207.599	13.65
207.818	21.84
208.037	44.37
208.255	25.94
208.474	-45.74
208.693	42.32
208.911	7.51
209.13	19.8
209.349	48.47
209.567	40.28
209.786	-6.83
210.005	15.7
210.223	-8.87
210.442	7.51
210.661	36.18
210.879	-0.68
211.098	50.52
211.316	87.38
211.535	105.81
211.753	-15.02
211.972	44.37
212.191	-33.45
212.409	60.76
212.628	40.28
212.846	38.23
213.065	46.42
213.283	25.94
213.502	23.89
213.72	50.52
213.938	13.65
214.157	52.56
214.375	44.37
214.594	-10.92
214.812	13.65
215.031	48.47
215.249	15.7
215.467	105.81
215.686	81.24
215.904	58.71
216.122	-0.68
216.341	77.14
216.559	-29.35
216.778	44.37
216.996	-0.68
217.214	34.13
217.432	7.51
217.651	36.18
217.869	-6.83
218.087	34.13
218.306	27.99
218.524	15.7
218.742	42.32
218.96	60.76
219.179	15.7
219.397	1.37
219.615	64.85
219.833	25.94
220.051	-21.16
220.27	38.23
220.488	91.48
220.706	15.7
220.924	44.37
221.142	5.46
221.36	25.94
221.578	19.8
221.796	17.75
222.015	46.42
222.233	42.32
222.451	50.52
222.669	-0.68
222.887	-29.35
223.105	11.61
223.323	-2.73
223.541	-6.83
223.759	68.95
223.977	15.7
224.195	85.33
224.413	58.71
224.631	25.94
224.849	11.61
225.067	42.32
225.285	32.08
225.503	-19.11
225.721	42.32
225.939	66.9
226.157	91.48
226.375	42.32
226.592	79.19
226.81	50.52
227.028	7.51
227.246	9.56
227.464	-55.98
227.682	64.85
227.9	122.2
228.117	60.76
228.335	46.42
228.553	-2.73
228.771	3.41
228.989	9.56
229.206	-21.16
229.424	32.08
229.642	-0.68
229.86	38.23
230.077	66.9
230.295	60.76
230.513	-6.83
230.731	36.18
230.948	21.84
231.166	60.76
231.384	52.56
231.601	23.89
231.819	13.65
232.037	62.8
232.254	15.7
232.472	36.18
232.689	-19.11
232.907	52.56
233.125	64.85
233.342	3.41
233.56	52.56
233.777	68.95
233.995	42.32
234.213	44.37
234.43	-23.21
234.648	42.32
234.865	-6.83
235.083	56.66
235.3	-6.83
235.518	46.42
235.735	36.18
235.953	34.13
236.17	15.7
236.388	46.42
236.605	62.8
236.822	85.33
237.04	11.61
237.257	-25.26
237.475	-10.92
237.692	107.86
237.909	52.56
238.127	-10.92
238.344	11.61
238.562	25.94
238.779	-96.94
238.996	75.09
239.214	17.75
239.431	77.14
239.648	-47.79
239.865	34.13
240.083	62.8
240.3	62.8
240.517	66.9
240.735	-12.97
240.952	89.43
241.169	83.28
241.386	7.51
241.603	66.9
241.821	-51.88
242.038	132.44
242.255	3.41
242.472	-19.11
242.689	7.51
242.907	85.33
243.124	30.04
243.341	79.19
243.558	109.91
243.775	42.32
243.992	56.66
244.209	-4.78
244.426	-23.21
244.643	93.52
244.86	27.99
245.078	38.23
245.295	83.28
245.512	66.9
245.729	-19.11
245.946	99.67
246.163	23.89
246.38	46.42
246.597	-2.73
246.814	9.56
247.031	56.66
247.248	32.08
247.464	-0.68
247.681	-8.87
247.898	19.8
248.115	-2.73
248.332	-58.03
248.549	64.85
248.766	7.51
248.983	9.56
249.2	54.61
249.417	25.94
249.633	-45.74
249.85	89.43
250.067	-55.98
250.284	13.65
250.501	15.7
250.717	60.76
250.934	23.89
251.151	50.52
251.368	3.41
251.585	36.18
251.801	19.8
252.018	75.09
252.235	73.04
252.451	-2.73
252.668	25.94
252.885	81.24
253.102	36.18
253.318	38.23
253.535	-17.07
253.752	-19.11
253.968	15.7
254.185	5.46
254.401	36.18
254.618	30.04
254.835	21.84
255.051	120.15
255.268	9.56
255.484	38.23
255.701	5.46
255.917	13.65
256.134	21.84
256.351	46.42
256.567	15.7
256.784	81.24
257	-2.73
257.217	56.66
257.433	-25.26
257.65	9.56
257.866	42.32
258.082	25.94
258.299	62.8
258.515	87.38
258.732	-49.83
258.948	-37.55
259.165	7.51
259.381	56.66
259.597	19.8
259.814	27.99
260.03	83.28
260.246	48.47
260.463	66.9
260.679	64.85
260.895	9.56
261.112	44.37
261.328	32.08
261.544	25.94
261.761	44.37
261.977	93.52
262.193	3.41
262.409	27.99
262.626	-27.31
262.842	68.95
263.058	52.56
263.274	77.14
263.49	19.8
263.707	5.46
263.923	-60.07
264.139	-39.59
264.355	11.61
264.571	58.71
264.787	44.37
265.004	73.04
265.22	42.32
265.436	15.7
265.652	87.38
265.868	50.52
266.084	54.61
266.3	13.65
266.516	19.8
266.732	54.61
266.948	56.66
267.164	40.28
267.38	13.65
267.596	68.95
267.812	62.8
268.028	75.09
268.244	85.33
268.46	85.33
268.676	91.48
268.892	124.24
269.108	111.96
269.324	-0.68
269.54	36.18
269.756	87.38
269.972	38.23
270.188	52.56
270.403	-10.92
270.619	93.52
270.835	48.47
271.051	15.7
271.267	11.61
271.483	64.85
271.698	42.32
271.914	34.13
272.13	25.94
272.346	21.84
272.562	-12.97
272.777	58.71
272.993	64.85
273.209	77.14
273.425	66.9
273.64	30.04
273.856	34.13
274.072	56.66
274.287	66.9
274.503	62.8
274.719	71
274.934	17.75
275.15	3.41
275.366	34.13
275.581	-4.78
275.797	44.37
276.012	-31.4
276.228	19.8
276.444	-21.16
276.659	30.04
276.875	-80.55
277.09	36.18
277.306	-23.21
277.521	60.76
277.737	-6.83
277.952	32.08
278.168	-47.79
278.383	83.28
278.599	21.84
278.814	46.42
279.03	54.61
279.245	46.42
279.461	-19.11
279.676	-21.16
279.892	-23.21
280.107	68.95
280.322	42.32
280.538	64.85
280.753	46.42
280.969	60.76
281.184	60.76
281.399	23.89
281.615	30.04
281.83	-6.83
282.045	19.8
282.26	-21.16
282.476	56.66
282.691	64.85
282.906	42.32
283.122	38.23
283.337	-60.07
283.552	58.71
283.767	5.46
283.983	42.32
284.198	27.99
284.413	27.99
284.628	-60.07
284.843	66.9
285.058	27.99
285.274	-41.64
285.489	3.41
285.704	73.04
285.919	-6.83
286.134	105.81
286.349	19.8
286.564	93.52
286.779	62.8
286.995	27.99
287.21	62.8
287.425	9.56
287.64	-31.4
287.855	27.99
288.07	-45.74
288.285	83.28
288.5	81.24
288.715	66.9
288.93	27.99
289.145	17.75
289.36	60.76
289.575	44.37
289.79	75.09
290.004	-21.16
290.219	1.37
290.434	38.23
290.649	-37.55
290.864	89.43
291.079	34.13
291.294	73.04
291.509	21.84
291.724	-15.02
291.938	3.41
292.153	56.66
292.368	62.8
292.583	54.61
292.798	21.84
293.012	-19.11
293.227	40.28
293.442	32.08
293.657	-35.5
293.871	99.67
294.086	62.8
294.301	83.28
294.516	71
294.73	13.65
294.945	46.42
295.16	60.76
295.374	54.61
295.589	13.65
295.804	44.37
296.018	34.13
296.233	36.18
296.447	60.76
296.662	27.99
296.877	93.52
297.091	58.71
297.306	54.61
297.52	-17.07
297.735	91.48
297.949	142.68
298.164	38.23
298.378	-15.02
298.593	40.28
298.807	-4.78
299.022	89.43
299.236	71
299.451	-6.83
299.665	-39.59
299.88	-49.83
300.094	44.37
300.309	50.52
300.523	1.37
300.737	71
300.952	95.57
301.166	15.7
301.381	19.8
301.595	56.66
301.809	64.85
302.024	60.76
302.238	71
302.452	83.28
302.667	-4.78
302.881	62.8
303.095	87.38
303.309	64.85
303.524	36.18
303.738	17.75
303.952	-62.12
304.166	91.48
304.381	13.65
304.595	54.61
304.809	17.75
305.023	85.33
305.237	25.94
305.452	30.04
305.666	-33.45
305.88	23.89
306.094	42.32
306.308	87.38
306.522	36.18
306.736	56.66
306.95	7.51
307.164	-31.4
307.379	44.37
307.593	62.8
307.807	-29.35
308.021	87.38
308.235	87.38
308.449	34.13
308.663	60.76
308.877	46.42
309.091	-10.92
309.305	7.51
309.519	19.8
309.733	99.67
309.947	3.41
310.161	46.42
310.374	-6.83
310.588	118.1
310.802	-8.87
311.016	5.46
311.23	21.84
311.444	-6.83
311.658	17.75
311.872	71
312.085	3.41
312.299	95.57
312.513	89.43
312.727	48.47
312.941	7.51
313.154	62.8
313.368	91.48
313.582	25.94
313.796	-12.97
314.009	66.9
314.223	79.19
314.437	25.94
314.651	52.56
314.864	56.66
315.078	-10.92
315.292	21.84
315.505	15.7
315.719	56.66
315.933	11.61
316.146	99.67
316.36	-31.4
316.573	83.28
316.787	73.04
317.001	64.85
317.214	44.37
317.428	132.44
317.641	11.61
317.855	13.65
318.068	-23.21
318.282	89.43
318.495	58.71
318.709	-6.83
318.922	103.76
319.136	79.19
319.349	105.81
319.563	23.89
319.776	27.99
319.99	46.42
320.203	52.56
320.417	19.8
320.63	60.76
320.843	99.67
321.057	68.95
321.27	-19.11
321.483	23.89
321.697	58.71
321.91	50.52
322.124	60.76
322.337	36.18
322.55	-12.97
322.763	66.9
322.977	58.71
323.19	64.85
323.403	60.76
323.617	44.37
323.83	46.42
324.043	-6.83
324.256	118.1
324.469	21.84
324.683	44.37
324.896	17.75
325.109	140.63
325.322	21.84
325.535	27.99
325.748	40.28
325.962	7.51
326.175	38.23
326.388	-21.16
326.601	-25.26
326.814	66.9
327.027	79.19
327.24	52.56
327.453	34.13
327.666	30.04
327.879	44.37
328.092	42.32
328.305	71
328.518	62.8
328.731	130.39
328.944	-37.55
329.157	126.29
329.37	105.81
329.583	25.94
329.796	48.47
330.009	5.46
330.222	-8.87
330.435	42.32
330.648	62.8
330.861	73.04
331.073	89.43
331.286	111.96
331.499	3.41
331.712	54.61
331.925	109.91
332.138	62.8
332.35	79.19
332.563	34.13
332.776	-4.78
332.989	34.13
333.202	42.32
333.414	9.56
333.627	52.56
333.84	19.8
334.053	11.61
334.265	25.94
334.478	30.04
334.691	11.61
334.903	48.47
335.116	77.14
335.329	44.37
335.541	132.44
335.754	109.91
335.966	99.67
336.179	44.37
336.392	89.43
336.604	52.56
336.817	3.41
337.029	116.05
337.242	68.95
337.454	62.8
337.667	23.89
337.88	56.66
338.092	5.46
338.305	17.75
338.517	77.14
338.729	89.43
338.942	77.14
339.154	-21.16
339.367	38.23
339.579	85.33
339.792	50.52
340.004	64.85
340.217	58.71
340.429	71
340.641	58.71
340.854	19.8
341.066	38.23
341.278	42.32
341.491	44.37
341.703	50.52
341.915	42.32
342.128	15.7
342.34	83.28
342.552	50.52
342.764	-0.68
342.977	13.65
343.189	48.47
343.401	42.32
343.613	79.19
343.826	71
344.038	36.18
344.25	25.94
344.462	107.86
344.674	42.32
344.886	105.81
345.099	58.71
345.311	42.32
345.523	64.85
345.735	-6.83
345.947	40.28
346.159	-17.07
346.371	122.2
346.583	30.04
346.795	83.28
347.007	27.99
347.219	77.14
347.431	-2.73
347.643	9.56
347.855	-2.73
348.067	56.66
348.279	87.38
348.491	97.62
348.703	25.94
348.915	66.9
349.127	75.09
349.339	23.89
349.551	-12.97
349.763	54.61
349.975	64.85
350.187	114
350.399	181.59
350.61	58.71
350.822	101.72
351.034	101.72
351.246	30.04
351.458	38.23
351.669	101.72
351.881	34.13
352.093	64.85
352.305	54.61
352.517	93.52
352.728	38.23
352.94	68.95
353.152	81.24
353.363	-6.83
353.575	62.8
353.787	25.94
353.999	68.95
354.21	36.18
354.422	1.37
354.633	-33.45
354.845	60.76
355.057	46.42
355.268	68.95
355.48	122.2
355.692	-35.5
355.903	46.42
356.115	58.71
356.326	23.89
356.538	68.95
356.749	15.7
356.961	60.76
357.172	9.56
357.384	-12.97
357.595	157.01
357.807	48.47
358.018	19.8
358.23	17.75
358.441	-41.64
358.653	64.85
358.864	13.65
359.075	62.8
359.287	34.13
359.498	13.65
359.709	5.46
359.921	11.61
360.132	44.37
360.344	99.67
360.555	32.08
360.766	73.04
360.977	58.71
361.189	56.66
361.4	66.9
361.611	116.05
361.823	48.47
362.034	32.08
362.245	15.7
362.456	-0.68
362.667	40.28
362.879	48.47
363.09	-15.02
363.301	11.61
363.512	71
363.723	77.14
363.935	5.46
364.146	116.05
364.357	32.08
364.568	42.32
364.779	124.24
364.99	105.81
365.201	46.42
365.412	89.43
365.623	126.29
365.834	27.99
366.045	27.99
366.256	66.9
366.467	73.04
366.678	68.95
366.889	5.46
367.1	126.29
367.311	-31.4
367.522	44.37
367.733	101.72
367.944	71
368.155	60.76
368.366	44.37
368.577	79.19
368.788	97.62
368.999	32.08
369.209	17.75
369.42	73.04
369.631	46.42
369.842	58.71
370.053	66.9
370.264	64.85
370.474	25.94
370.685	13.65
370.896	87.38
371.107	83.28
371.317	105.81
371.528	27.99
371.739	48.47
371.95	50.52
372.16	109.91
372.371	87.38
372.582	91.48
372.792	130.39
373.003	46.42
373.214	36.18
373.424	75.09
373.635	40.28
373.846	89.43
374.056	79.19
374.267	44.37
374.477	30.04
374.688	81.24
374.898	68.95
375.109	-39.59
375.319	9.56
375.53	79.19
375.74	116.05
375.951	89.43
376.161	52.56
376.372	93.52
376.582	75.09
376.793	44.37
377.003	15.7
377.214	62.8
377.424	85.33
377.635	27.99
377.845	52.56
378.055	40.28
378.266	56.66
378.476	40.28
378.686	56.66
378.897	46.42
379.107	-2.73
379.317	116.05
379.528	83.28
379.738	54.61
379.948	-31.4
380.158	75.09
380.369	36.18
380.579	11.61
380.789	-8.87
380.999	146.77
381.21	118.1
381.42	154.96
381.63	68.95
381.84	130.39
382.05	52.56
382.261	134.48
382.471	120.15
382.681	46.42
382.891	89.43
383.101	30.04
383.311	-49.83
383.521	-21.16
383.731	5.46
383.941	85.33
384.151	44.37
384.361	122.2
384.571	44.37
384.781	87.38
384.991	114
385.201	109.91
385.411	64.85
385.621	148.82
385.831	36.18
386.041	91.48
386.251	46.42
386.461	138.58
386.671	46.42
386.881	21.84
387.091	52.56
387.301	32.08
387.511	-17.07
387.72	9.56
387.93	68.95
388.14	105.81
388.35	81.24
388.56	62.8
388.769	111.96
388.979	83.28
389.189	77.14
389.399	68.95
389.609	73.04
389.818	73.04
390.028	50.52
390.238	71
390.447	38.23
390.657	71
390.867	114
391.076	-4.78
391.286	50.52
391.496	126.29
391.705	52.56
391.915	146.77
392.125	-2.73
392.334	103.76
392.544	75.09
392.753	73.04
392.963	58.71
393.172	58.71
393.382	154.96
393.591	161.11
393.801	19.8
394.01	173.39
394.22	95.57
394.429	36.18
394.639	68.95
394.848	101.72
395.058	25.94
395.267	71
395.477	27.99
395.686	83.28
395.895	130.39
396.105	167.25
396.314	75.09
396.524	140.63
396.733	75.09
396.942	87.38
397.152	54.61
397.361	46.42
397.57	81.24
397.78	118.1
397.989	136.53
398.198	132.44
398.407	107.86
398.617	60.76
398.826	101.72
399.035	56.66
399.244	116.05
399.453	157.01
399.663	111.96
399.872	126.29
400.081	122.2
400.29	167.25
400.499	77.14
400.708	154.96
400.917	136.53
401.127	73.04
401.336	71
401.545	146.77
401.754	138.58
401.963	93.52
402.172	144.72
402.381	163.15
402.59	165.2
402.799	101.72
403.008	83.28
403.217	71
403.426	161.11
403.635	118.1
403.844	42.32
404.053	140.63
404.262	58.71
404.471	138.58
404.68	130.39
404.888	148.82
405.097	114
405.306	187.73
405.515	161.11
405.724	204.11
405.933	218.45
406.142	169.3
406.35	238.93
406.559	124.24
406.768	175.44
406.977	163.15
407.185	191.83
407.394	206.16
407.603	130.39
407.812	238.93
408.02	253.27
408.229	114
408.438	179.54
408.646	202.07
408.855	261.46
409.064	290.13
409.272	255.31
409.481	292.18
409.69	228.69
409.898	277.84
410.107	310.61
410.315	290.13
410.524	333.14
410.733	298.32
410.941	306.51
411.15	361.81
411.358	331.09
411.567	445.77
411.775	359.76
411.984	398.67
412.192	417.1
412.401	468.3
412.609	480.59
412.818	464.21
413.026	494.93
413.234	488.78
413.443	478.54
413.651	460.11
413.86	501.07
414.068	505.17
414.276	638.28
414.485	550.22
414.693	615.76
414.901	621.9
415.11	603.47
415.318	699.72
415.526	761.16
415.734	804.17
415.943	798.03
416.151	675.15
416.359	752.97
416.567	748.87
416.776	830.79
416.984	914.76
417.192	945.48
417.4	931.14
417.608	916.81
417.817	957.77
418.025	1043.78
418.233	1074.5
418.441	1019.21
418.649	1158.47
418.857	1148.23
419.065	1183.04
419.273	1273.15
419.481	1232.19
419.689	1406.27
419.897	1398.08
420.105	1422.66
420.313	1445.18
420.521	1404.22
420.729	1498.43
420.937	1559.87
421.145	1641.79
421.353	1594.68
421.561	1787.19
421.769	1822.01
421.977	1877.3
422.185	1963.32
422.393	2053.43
422.601	2131.25
422.809	2086.2
423.017	2110.77
423.224	2135.35
423.432	2366.77
423.64	2268.47
423.848	2563.37
424.056	2424.11
424.263	2637.1
424.471	2798.89
424.679	2827.56
424.887	2862.38
425.094	2932.01
425.302	2905.38
425.51	3122.47
425.718	3122.47
425.925	3284.26
426.133	3327.27
426.341	3456.29
426.548	3724.57
426.756	3654.94
426.964	3669.28
427.171	3853.59
427.379	3937.56
427.586	4197.65
427.794	4115.73
428.001	4287.76
428.209	4637.97
428.417	4461.84
428.624	4971.79
428.832	4914.44
429.039	4859.15
429.247	4889.87
429.454	5420.29
429.662	5770.49
429.869	5414.15
430.076	5735.68
430.284	5518.59
430.491	5672.19
430.699	6030.59
430.906	6147.32
431.114	6171.9
431.321	6497.52
431.528	6692.08
431.736	6862.06
431.943	7189.74
432.15	7120.1
432.358	7091.43
432.565	7421.16
432.772	7513.31
432.979	7832.8
433.187	8090.84
433.394	8215.77
433.601	8719.57
433.808	8725.71
434.016	8623.31
434.223	9088.2
434.43	9559.24
434.637	9323.72
434.844	9919.68
435.052	10190.01
435.259	9995.45
435.466	10185.91
435.673	10130.62
435.88	10751.15
436.087	11269.29
436.294	11406.5
436.501	11041.96
436.708	11422.89
436.915	11635.88
437.122	12233.88
437.329	12205.21
437.537	12489.88
437.743	12768.4
437.95	12596.37
438.157	13388.94
438.364	13761.67
438.571	13702.28
438.778	13958.27
438.985	15086.7
439.192	14703.73
439.399	15162.48
439.606	14804.08
439.813	15578.22
440.02	16606.3
440.227	16274.53
440.433	16067.68
440.64	16450.65
440.847	16413.79
441.054	16872.53
441.261	18140.22
441.467	17636.42
441.674	18144.32
441.881	18879.54
442.088	18670.65
442.294	18496.57
442.501	19156.02
442.708	19579.95
442.914	20257.82
443.121	21314.58
443.328	20626.46
443.534	22125.57
443.741	21451.79
443.948	21371.92
444.154	22809.59
444.361	22666.24
444.568	22785.02
444.774	22875.13
444.981	23206.9
445.187	23792.62
445.394	24572.89
445.6	24603.61
445.807	26981.31
446.013	25635.79
446.22	26211.27
446.426	27298.74
446.633	27253.69
446.839	28300.2
447.046	27120.57
447.252	28515.23
447.459	28881.82
447.665	28703.65
447.871	29791.12
448.078	31466.36
448.284	29778.83
448.491	30620.55
448.697	31769.46
448.903	32297.83
449.11	32316.26
449.316	31798.13
449.522	32445.29
449.728	33485.65
449.935	33784.66
450.141	33850.19
450.347	34407.24
450.553	33268.57
450.76	33811.28
450.966	34777.92
451.172	34499.4
451.378	35283.77
451.584	34517.83
451.791	35705.65
451.997	35521.34
452.203	36105.01
452.409	36252.46
452.615	35947.31
452.821	34603.85
453.027	34331.47
453.233	36074.29
453.44	34358.09
453.646	35027.77
453.852	35314.49
454.058	36176.69
454.264	34548.55
454.47	35466.04
454.676	34448.2
454.882	35928.88
455.088	32840.54
455.294	33092.44
455.5	34081.61
455.705	34132.81
455.911	33000.29
456.117	31953.77
456.323	31832.94
456.529	29815.69
456.735	31318.9
456.941	30681.99
457.147	29967.24
457.352	28777.37
457.558	28953.5
457.764	28857.24
457.97	28394.4
458.176	27718.57
458.381	27489.2
458.587	26467.27
458.793	26344.39
458.999	24703.96
459.204	26559.42
459.41	26186.69
459.616	24257.51
459.821	24171.49
460.027	24263.65
460.233	23393.26
460.438	22402.05
460.644	22881.27
460.85	21761.03
461.055	21472.27
461.261	21206.03
461.466	19680.3
461.672	19495.98
461.878	20675.61
462.083	19282.99
462.289	18932.79
462.494	18508.86
462.7	18011.2
462.905	17144.91
463.111	17769.54
463.316	18029.63
463.522	17661
463.727	17626.18
463.932	17466.44
464.138	17415.24
464.343	17474.63
464.549	16837.72
464.754	17513.55
464.959	17493.07
465.165	17450.06
465.37	16755.8
465.575	16065.63
465.781	16391.26
465.986	16933.97
466.191	16276.57
466.397	15709.29
466.602	15258.73
466.807	15780.96
467.012	16061.54
467.218	15729.77
467.423	15522.92
467.628	15819.88
467.833	16229.47
468.038	15727.72
468.244	15039.6
468.449	15846.5
