Data from USB4F104151__42__12-27-24-454.txt Node

Date: Fri Mar 14 12:27:24 EDT 2025
User: louis
Spectrometer: USB4F10415
Trigger mode: 4
Integration Time (sec): 2.000000E-2
Scans to average: 1
Electric dark correction enabled: true
Nonlinearity correction enabled: false
Boxcar width: 0
XAxis mode: Wavelengths
Number of Pixels in Spectrum: 3648
>>>>>Begin Spectral Data<<<<<
178.204	-8.53
178.424	-8.53
178.644	-8.53
178.864	-49.49
179.084	-59.73
179.304	3.75
179.524	22.19
179.744	-18.77
179.964	59.05
180.184	-33.11
180.404	18.09
180.624	-22.87
180.844	9.9
181.064	-22.87
181.283	1.71
181.503	-29.01
181.723	11.95
181.943	36.52
182.163	81.58
182.383	50.86
182.602	116.39
182.822	95.91
183.042	36.52
183.262	122.54
183.482	-4.44
183.701	-82.26
183.921	24.23
184.141	13.99
184.361	75.43
184.58	77.48
184.8	42.67
185.02	34.47
185.239	20.14
185.459	-39.25
185.679	63.15
185.898	-35.16
186.118	32.43
186.338	9.9
186.557	118.44
186.777	9.9
186.997	57
187.216	-16.73
187.436	18.09
187.655	59.05
187.875	7.85
188.095	65.19
188.314	18.09
188.534	83.63
188.753	28.33
188.973	20.14
189.192	77.48
189.412	-2.39
189.631	26.28
189.851	36.52
190.07	50.86
190.29	50.86
190.509	85.67
190.729	5.8
190.948	87.72
191.168	177.83
191.387	48.81
191.607	36.52
191.826	93.87
192.045	52.91
192.265	46.76
192.484	22.19
192.704	36.52
192.923	44.71
193.142	34.47
193.362	28.33
193.581	52.91
193.8	97.96
194.02	71.34
194.239	22.19
194.458	67.24
194.678	-35.16
194.897	61.1
195.116	34.47
195.335	77.48
195.555	24.23
195.774	24.23
195.993	26.28
196.212	46.76
196.432	85.67
196.651	65.19
196.87	24.23
197.089	57
197.308	-4.44
197.528	30.38
197.747	36.52
197.966	81.58
198.185	116.39
198.404	26.28
198.623	-45.4
198.842	46.76
199.062	69.29
199.281	97.96
199.5	13.99
199.719	75.43
199.938	48.81
200.157	-2.39
200.376	102.06
200.595	13.99
200.814	50.86
201.033	26.28
201.252	108.2
201.471	57
201.69	30.38
201.909	89.77
202.128	36.52
202.347	18.09
202.566	50.86
202.785	112.3
203.004	77.48
203.223	169.64
203.442	42.67
203.661	24.23
203.879	61.1
204.098	79.53
204.317	-24.92
204.536	7.85
204.755	75.43
204.974	118.44
205.193	-20.82
205.411	116.39
205.63	34.47
205.849	46.76
206.068	-10.58
206.287	28.33
206.505	26.28
206.724	97.96
206.943	-0.34
207.162	44.71
207.381	34.47
207.599	106.15
207.818	36.52
208.037	-22.87
208.255	-51.54
208.474	50.86
208.693	1.71
208.911	22.19
209.13	16.04
209.349	102.06
209.567	20.14
209.786	20.14
210.005	36.52
210.223	24.23
210.442	20.14
210.661	65.19
210.879	65.19
211.098	32.43
211.316	-20.82
211.535	63.15
211.753	28.33
211.972	42.67
212.191	38.57
212.409	3.75
212.628	67.24
212.846	85.67
213.065	24.23
213.283	89.77
213.502	32.43
213.72	65.19
213.938	65.19
214.157	18.09
214.375	-14.68
214.594	30.38
214.812	-12.63
215.031	54.95
215.249	5.8
215.467	-24.92
215.686	93.87
215.904	-0.34
216.122	30.38
216.341	77.48
216.559	83.63
216.778	11.95
216.996	93.87
217.214	5.8
217.432	67.24
217.651	28.33
217.869	28.33
218.087	22.19
218.306	65.19
218.524	48.81
218.742	75.43
218.96	79.53
219.179	81.58
219.397	57
219.615	30.38
219.833	-8.53
220.051	-57.68
220.27	85.67
220.488	40.62
220.706	18.09
220.924	30.38
221.142	59.05
221.36	52.91
221.578	126.63
221.796	69.29
222.015	54.95
222.233	42.67
222.451	73.39
222.669	-22.87
222.887	-6.49
223.105	-2.39
223.323	81.58
223.541	36.52
223.759	126.63
223.977	75.43
224.195	-0.34
224.413	106.15
224.631	126.63
224.849	44.71
225.067	11.95
225.285	65.19
225.503	79.53
225.721	-18.77
225.939	-2.39
226.157	65.19
226.375	149.16
226.592	7.85
226.81	38.57
227.028	52.91
227.246	52.91
227.464	71.34
227.682	106.15
227.9	81.58
228.117	83.63
228.335	16.04
228.553	7.85
228.771	30.38
228.989	20.14
229.206	112.3
229.424	-10.58
229.642	5.8
229.86	-43.35
230.077	100.01
230.295	9.9
230.513	65.19
230.731	102.06
230.948	67.24
231.166	32.43
231.384	-18.77
231.601	22.19
231.819	67.24
232.037	30.38
232.254	30.38
232.472	69.29
232.689	3.75
232.907	32.43
233.125	-8.53
233.342	24.23
233.56	91.82
233.777	24.23
233.995	59.05
234.213	79.53
234.43	67.24
234.648	61.1
234.865	30.38
235.083	73.39
235.3	-2.39
235.518	-53.59
235.735	11.95
235.953	116.39
236.17	87.72
236.388	-16.73
236.605	9.9
236.822	34.47
237.04	1.71
237.257	24.23
237.475	-2.39
237.692	63.15
237.909	136.87
238.127	77.48
238.344	-45.4
238.562	-10.58
238.779	22.19
238.996	38.57
239.214	46.76
239.431	54.95
239.648	5.8
239.865	65.19
240.083	16.04
240.3	71.34
240.517	-16.73
240.735	34.47
240.952	108.2
241.169	40.62
241.386	102.06
241.603	16.04
241.821	63.15
242.038	100.01
242.255	73.39
242.472	38.57
242.689	89.77
242.907	36.52
243.124	73.39
243.341	-18.77
243.558	-18.77
243.775	87.72
243.992	32.43
244.209	-10.58
244.426	57
244.643	59.05
244.86	-45.4
245.078	24.23
245.295	26.28
245.512	102.06
245.729	-90.45
245.946	1.71
246.163	30.38
246.38	-10.58
246.597	-26.96
246.814	110.25
247.031	18.09
247.248	44.71
247.464	32.43
247.681	52.91
247.898	24.23
248.115	22.19
248.332	93.87
248.549	54.95
248.766	40.62
248.983	95.91
249.2	30.38
249.417	57
249.633	57
249.85	42.67
250.067	108.2
250.284	91.82
250.501	32.43
250.717	48.81
250.934	-22.87
251.151	5.8
251.368	28.33
251.585	30.38
251.801	36.52
252.018	-4.44
252.235	26.28
252.451	-20.82
252.668	38.57
252.885	28.33
253.102	30.38
253.318	36.52
253.535	11.95
253.752	7.85
253.968	34.47
254.185	38.57
254.401	52.91
254.618	28.33
254.835	46.76
255.051	69.29
255.268	-0.34
255.484	65.19
255.701	65.19
255.917	67.24
256.134	-10.58
256.351	65.19
256.567	13.99
256.784	16.04
257	-8.53
257.217	13.99
257.433	42.67
257.65	124.58
257.866	63.15
258.082	9.9
258.299	57
258.515	18.09
258.732	13.99
258.948	57
259.165	38.57
259.381	-4.44
259.597	9.9
259.814	22.19
260.03	18.09
260.246	81.58
260.463	128.68
260.679	65.19
260.895	61.1
261.112	40.62
261.328	57
261.544	34.47
261.761	5.8
261.977	-26.96
262.193	48.81
262.409	30.38
262.626	122.54
262.842	18.09
263.058	77.48
263.274	36.52
263.49	-0.34
263.707	36.52
263.923	100.01
264.139	-12.63
264.355	46.76
264.571	44.71
264.787	93.87
265.004	38.57
265.22	9.9
265.436	7.85
265.652	59.05
265.868	77.48
266.084	16.04
266.3	42.67
266.516	42.67
266.732	136.87
266.948	46.76
267.164	16.04
267.38	57
267.596	20.14
267.812	104.11
268.028	26.28
268.244	54.95
268.46	42.67
268.676	46.76
268.892	83.63
269.108	85.67
269.324	-35.16
269.54	13.99
269.756	102.06
269.972	42.67
270.188	52.91
270.403	40.62
270.619	28.33
270.835	42.67
271.051	177.83
271.267	34.47
271.483	54.95
271.698	95.91
271.914	46.76
272.13	-18.77
272.346	81.58
272.562	28.33
272.777	128.68
272.993	91.82
273.209	40.62
273.425	77.48
273.64	-16.73
273.856	54.95
274.072	30.38
274.287	32.43
274.503	7.85
274.719	42.67
274.934	18.09
275.15	52.91
275.366	57
275.581	48.81
275.797	44.71
276.012	-31.06
276.228	77.48
276.444	100.01
276.659	38.57
276.875	13.99
277.09	28.33
277.306	157.35
277.521	116.39
277.737	28.33
277.952	5.8
278.168	61.1
278.383	-10.58
278.599	40.62
278.814	44.71
279.03	1.71
279.245	36.52
279.461	63.15
279.676	-10.58
279.892	-4.44
280.107	7.85
280.322	42.67
280.538	44.71
280.753	69.29
280.969	71.34
281.184	30.38
281.399	71.34
281.615	69.29
281.83	52.91
282.045	50.86
282.26	18.09
282.476	67.24
282.691	93.87
282.906	-2.39
283.122	46.76
283.337	57
283.552	93.87
283.767	11.95
283.983	1.71
284.198	65.19
284.413	61.1
284.628	36.52
284.843	93.87
285.058	106.15
285.274	5.8
285.489	22.19
285.704	28.33
285.919	-4.44
286.134	3.75
286.349	-37.2
286.564	7.85
286.779	67.24
286.995	63.15
287.21	11.95
287.425	120.49
287.64	38.57
287.855	1.71
288.07	71.34
288.285	26.28
288.5	9.9
288.715	48.81
288.93	81.58
289.145	-29.01
289.36	114.34
289.575	61.1
289.79	69.29
290.004	42.67
290.219	65.19
290.434	34.47
290.649	16.04
290.864	50.86
291.079	67.24
291.294	11.95
291.509	-14.68
291.724	-6.49
291.938	20.14
292.153	38.57
292.368	46.76
292.583	-0.34
292.798	67.24
293.012	77.48
293.227	42.67
293.442	75.43
293.657	40.62
293.871	91.82
294.086	-10.58
294.301	81.58
294.516	7.85
294.73	79.53
294.945	46.76
295.16	-18.77
295.374	79.53
295.589	59.05
295.804	81.58
296.018	77.48
296.233	30.38
296.447	100.01
296.662	-12.63
296.877	44.71
297.091	69.29
297.306	22.19
297.52	1.71
297.735	114.34
297.949	-20.82
298.164	112.3
298.378	26.28
298.593	44.71
298.807	108.2
299.022	69.29
299.236	34.47
299.451	89.77
299.665	75.43
299.88	28.33
300.094	40.62
300.309	54.95
300.523	11.95
300.737	38.57
300.952	73.39
301.166	50.86
301.381	32.43
301.595	-10.58
301.809	36.52
302.024	40.62
302.238	30.38
302.452	83.63
302.667	-55.64
302.881	-29.01
303.095	34.47
303.309	71.34
303.524	42.67
303.738	36.52
303.952	79.53
304.166	48.81
304.381	24.23
304.595	69.29
304.809	-72.02
305.023	57
305.237	40.62
305.452	91.82
305.666	59.05
305.88	85.67
306.094	42.67
306.308	79.53
306.522	38.57
306.736	38.57
306.95	69.29
307.164	-0.34
307.379	67.24
307.593	85.67
307.807	54.95
308.021	126.63
308.235	73.39
308.449	81.58
308.663	42.67
308.877	40.62
309.091	93.87
309.305	46.76
309.519	-12.63
309.733	97.96
309.947	-24.92
310.161	81.58
310.374	59.05
310.588	71.34
310.802	59.05
311.016	26.28
311.23	38.57
311.444	57
311.658	16.04
311.872	89.77
312.085	46.76
312.299	52.91
312.513	61.1
312.727	57
312.941	52.91
313.154	18.09
313.368	11.95
313.582	32.43
313.796	87.72
314.009	-8.53
314.223	118.44
314.437	89.77
314.651	38.57
314.864	63.15
315.078	32.43
315.292	-14.68
315.505	-29.01
315.719	26.28
315.933	-2.39
316.146	59.05
316.36	30.38
316.573	42.67
316.787	83.63
317.001	7.85
317.214	114.34
317.428	26.28
317.641	57
317.855	46.76
318.068	-10.58
318.282	46.76
318.495	-18.77
318.709	46.76
318.922	81.58
319.136	24.23
319.349	48.81
319.563	40.62
319.776	59.05
319.99	-6.49
320.203	110.25
320.417	104.11
320.63	100.01
320.843	118.44
321.057	79.53
321.27	81.58
321.483	22.19
321.697	63.15
321.91	81.58
322.124	63.15
322.337	11.95
322.55	63.15
322.763	18.09
322.977	44.71
323.19	75.43
323.403	30.38
323.617	65.19
323.83	40.62
324.043	77.48
324.256	52.91
324.469	114.34
324.683	95.91
324.896	36.52
325.109	124.58
325.322	46.76
325.535	52.91
325.748	71.34
325.962	-20.82
326.175	-10.58
326.388	22.19
326.601	73.39
326.814	75.43
327.027	-22.87
327.24	77.48
327.453	-2.39
327.666	-6.49
327.879	81.58
328.092	106.15
328.305	83.63
328.518	-20.82
328.731	20.14
328.944	28.33
329.157	73.39
329.37	48.81
329.583	91.82
329.796	57
330.009	13.99
330.222	75.43
330.435	67.24
330.648	61.1
330.861	-6.49
331.073	65.19
331.286	63.15
331.499	38.57
331.712	50.86
331.925	108.2
332.138	65.19
332.35	81.58
332.563	-8.53
332.776	114.34
332.989	13.99
333.202	59.05
333.414	34.47
333.627	50.86
333.84	-2.39
334.053	1.71
334.265	22.19
334.478	52.91
334.691	38.57
334.903	67.24
335.116	22.19
335.329	22.19
335.541	65.19
335.754	52.91
335.966	22.19
336.179	48.81
336.392	42.67
336.604	81.58
336.817	67.24
337.029	122.54
337.242	40.62
337.454	57
337.667	110.25
337.88	38.57
338.092	50.86
338.305	73.39
338.517	38.57
338.729	30.38
338.942	87.72
339.154	48.81
339.367	-63.83
339.579	38.57
339.792	20.14
340.004	36.52
340.217	-31.06
340.429	85.67
340.641	24.23
340.854	38.57
341.066	18.09
341.278	50.86
341.491	65.19
341.703	87.72
341.915	20.14
342.128	-2.39
342.34	65.19
342.552	102.06
342.764	36.52
342.977	81.58
343.189	106.15
343.401	13.99
343.613	-20.82
343.826	81.58
344.038	13.99
344.25	134.82
344.462	-14.68
344.674	136.87
344.886	91.82
345.099	57
345.311	18.09
345.523	11.95
345.735	77.48
345.947	67.24
346.159	34.47
346.371	63.15
346.583	87.72
346.795	61.1
347.007	40.62
347.219	61.1
347.431	130.73
347.643	38.57
347.855	54.95
348.067	75.43
348.279	136.87
348.491	81.58
348.703	120.49
348.915	48.81
349.127	73.39
349.339	61.1
349.551	52.91
349.763	120.49
349.975	57
350.187	83.63
350.399	50.86
350.61	-20.82
350.822	57
351.034	93.87
351.246	-12.63
351.458	38.57
351.669	102.06
351.881	151.21
352.093	36.52
352.305	85.67
352.517	83.63
352.728	93.87
352.94	67.24
353.152	16.04
353.363	16.04
353.575	89.77
353.787	59.05
353.999	63.15
354.21	67.24
354.422	93.87
354.633	73.39
354.845	63.15
355.057	22.19
355.268	20.14
355.48	71.34
355.692	52.91
355.903	95.91
356.115	20.14
356.326	54.95
356.538	50.86
356.749	122.54
356.961	108.2
357.172	38.57
357.384	38.57
357.595	46.76
357.807	40.62
358.018	32.43
358.23	-14.68
358.441	83.63
358.653	65.19
358.864	106.15
359.075	97.96
359.287	30.38
359.498	28.33
359.709	38.57
359.921	71.34
360.132	75.43
360.344	7.85
360.555	59.05
360.766	57
360.977	34.47
361.189	50.86
361.4	50.86
361.611	106.15
361.823	124.58
362.034	67.24
362.245	32.43
362.456	32.43
362.667	59.05
362.879	89.77
363.09	75.43
363.301	79.53
363.512	7.85
363.723	97.96
363.935	38.57
364.146	130.73
364.357	32.43
364.568	93.87
364.779	24.23
364.99	79.53
365.201	18.09
365.412	28.33
365.623	24.23
365.834	104.11
366.045	73.39
366.256	106.15
366.467	171.69
366.678	71.34
366.889	93.87
367.1	40.62
367.311	30.38
367.522	81.58
367.733	24.23
367.944	79.53
368.155	32.43
368.366	108.2
368.577	42.67
368.788	91.82
368.999	24.23
369.209	22.19
369.42	102.06
369.631	159.4
369.842	44.71
370.053	108.2
370.264	69.29
370.474	61.1
370.685	57
370.896	16.04
371.107	71.34
371.317	69.29
371.528	40.62
371.739	20.14
371.95	95.91
372.16	153.26
372.371	-10.58
372.582	-6.49
372.792	18.09
373.003	52.91
373.214	63.15
373.424	122.54
373.635	22.19
373.846	122.54
374.056	24.23
374.267	112.3
374.477	130.73
374.688	91.82
374.898	24.23
375.109	13.99
375.319	50.86
375.53	9.9
375.74	73.39
375.951	93.87
376.161	73.39
376.372	28.33
376.582	75.43
376.793	-6.49
377.003	46.76
377.214	38.57
377.424	42.67
377.635	71.34
377.845	81.58
378.055	87.72
378.266	32.43
378.476	65.19
378.686	54.95
378.897	32.43
379.107	83.63
379.317	114.34
379.528	7.85
379.738	38.57
379.948	38.57
380.158	89.77
380.369	34.47
380.579	13.99
380.789	59.05
380.999	79.53
381.21	26.28
381.42	140.97
381.63	52.91
381.84	32.43
382.05	44.71
382.261	65.19
382.471	147.11
382.681	7.85
382.891	52.91
383.101	40.62
383.311	18.09
383.521	52.91
383.731	122.54
383.941	48.81
384.151	50.86
384.361	79.53
384.571	-35.16
384.781	63.15
384.991	-6.49
385.201	75.43
385.411	83.63
385.621	87.72
385.831	18.09
386.041	34.47
386.251	95.91
386.461	89.77
386.671	108.2
386.881	118.44
387.091	34.47
387.301	138.92
387.511	87.72
387.72	120.49
387.93	63.15
388.14	7.85
388.35	130.73
388.56	75.43
388.769	97.96
388.979	108.2
389.189	16.04
389.399	69.29
389.609	91.82
389.818	112.3
390.028	106.15
390.238	79.53
390.447	32.43
390.657	61.1
390.867	81.58
391.076	71.34
391.286	59.05
391.496	85.67
391.705	75.43
391.915	65.19
392.125	140.97
392.334	132.78
392.544	112.3
392.753	157.35
392.963	24.23
393.172	13.99
393.382	54.95
393.591	110.25
393.801	87.72
394.01	93.87
394.22	89.77
394.429	85.67
394.639	93.87
394.848	42.67
395.058	145.06
395.267	13.99
395.477	104.11
395.686	122.54
395.895	100.01
396.105	143.02
396.314	130.73
396.524	93.87
396.733	126.63
396.942	73.39
397.152	57
397.361	126.63
397.57	89.77
397.78	81.58
397.989	97.96
398.198	108.2
398.407	57
398.617	57
398.826	67.24
399.035	79.53
399.244	167.59
399.453	85.67
399.663	59.05
399.872	79.53
400.081	91.82
400.29	126.63
400.499	143.02
400.708	77.48
400.917	147.11
401.127	147.11
401.336	79.53
401.545	224.94
401.754	149.16
401.963	104.11
402.172	79.53
402.381	106.15
402.59	151.21
402.799	147.11
403.008	147.11
403.217	165.54
403.426	122.54
403.635	112.3
403.844	165.54
404.053	124.58
404.262	102.06
404.471	206.5
404.68	75.43
404.888	130.73
405.097	188.07
405.306	179.88
405.515	134.82
405.724	155.3
405.933	169.64
406.142	143.02
406.35	198.31
406.559	102.06
406.768	196.26
406.977	231.08
407.185	198.31
407.394	186.02
407.603	167.59
407.812	190.12
408.02	202.41
408.229	169.64
408.438	237.22
408.646	212.65
408.855	229.03
409.064	257.7
409.272	188.07
409.481	343.72
409.69	202.41
409.898	296.61
410.107	335.53
410.315	321.19
410.524	304.81
410.733	378.53
410.941	280.23
411.15	345.77
411.358	388.77
411.567	370.34
411.775	331.43
411.984	368.29
412.192	435.88
412.401	417.44
412.609	446.12
412.818	423.59
413.026	403.11
413.234	548.51
413.443	511.65
413.651	521.89
413.86	521.89
414.068	556.71
414.276	593.57
414.485	568.99
414.693	552.61
414.901	554.66
415.11	704.16
415.318	618.15
415.526	640.67
415.734	747.17
415.943	663.2
416.151	761.5
416.359	738.98
416.567	784.03
416.776	777.89
416.984	933.53
417.192	870.05
417.4	945.82
417.608	896.67
417.817	943.77
418.025	1003.16
418.233	1136.28
418.441	1109.66
418.649	1035.93
418.857	1177.24
419.065	1123.99
419.273	1226.39
419.481	1265.3
419.689	1341.08
419.897	1459.86
420.105	1425.04
420.313	1394.33
420.521	1461.91
420.729	1572.5
420.937	1592.98
421.145	1490.58
421.353	1631.89
421.561	1773.2
421.769	1797.78
421.977	1855.12
422.185	1918.61
422.393	1943.18
422.601	2129.55
422.809	2045.58
423.017	2111.11
423.224	2141.83
423.432	2256.52
423.64	2326.15
423.848	2557.57
424.056	2502.28
424.263	2543.24
424.471	2524.8
424.679	2762.37
424.887	2737.79
425.094	2983.55
425.302	2997.88
425.51	2997.88
425.718	3253.88
425.925	3147.39
426.133	3155.58
426.341	3374.71
426.548	3448.44
426.756	3538.55
426.964	3683.95
427.171	3692.15
427.379	3999.34
427.586	4054.64
427.794	4130.41
428.001	4339.3
428.209	4480.61
428.417	4388.46
428.624	4716.13
428.832	4836.96
429.039	4705.89
429.247	4783.71
429.454	5262.94
429.662	5508.69
429.869	5189.21
430.076	5619.28
430.284	5420.63
430.491	5662.29
430.699	5989.97
430.906	5965.39
431.114	5916.24
431.321	6258.25
431.528	6424.14
431.736	6520.39
431.943	7237.18
432.15	6895.17
432.358	6903.36
432.565	7448.12
432.772	7341.63
432.979	7607.86
433.187	7855.67
433.394	7996.98
433.601	8355.37
433.808	8347.18
434.016	8295.98
434.223	8762.92
434.43	9209.37
434.637	9100.83
434.844	9670.17
435.052	9838.1
435.259	9778.71
435.466	9881.11
435.673	9750.04
435.88	10378.76
436.087	10946.05
436.294	10984.96
436.501	10671.62
436.708	10917.38
436.915	11361.79
437.122	11765.24
437.329	11941.36
437.537	12090.87
437.743	12609
437.95	12256.75
438.157	13012.45
438.364	13227.49
438.571	13317.6
438.778	13264.35
438.985	14593.48
439.192	14065.11
439.399	14511.57
439.606	14374.35
439.813	14923.21
440.02	15760.83
440.227	15693.24
440.433	15412.67
440.64	16020.92
440.847	15889.85
441.054	16434.61
441.261	17450.4
441.467	17190.31
441.674	17450.4
441.881	18220.44
442.088	18132.37
442.294	18148.76
442.501	18509.2
442.708	18834.83
442.914	19342.72
443.121	20331.89
443.328	19684.73
443.534	21257.57
443.741	20780.4
443.948	20465.01
444.154	21785.95
444.361	21706.08
444.568	21728.61
444.774	21777.76
444.981	22396.24
445.187	22902.09
445.394	23762.24
445.6	23471.43
445.807	25781.54
446.013	24730.93
446.22	25054.51
446.426	26125.6
446.633	26273.05
446.839	27079.95
447.046	26352.92
447.252	27649.28
447.459	27385.1
447.665	27567.37
447.871	28523.77
448.078	30022.88
448.284	28394.75
448.491	29056.24
448.697	30295.26
448.903	30848.21
449.11	31151.31
449.316	30790.87
449.522	30940.37
449.728	32115.9
449.935	32490.68
450.141	32394.43
450.347	33127.6
450.553	31646.92
450.76	32050.37
450.966	33406.12
451.172	32720.06
451.378	33791.14
451.584	33191.09
451.791	34098.34
451.997	34026.66
452.203	34659.48
452.409	34663.58
452.615	34761.88
452.821	33141.94
453.027	32732.34
453.233	34503.84
453.44	33066.16
453.646	33643.69
453.852	34061.47
454.058	34102.43
454.264	33143.98
454.47	33842.34
454.676	32912.56
454.882	34413.73
455.088	31345.87
455.294	31943.88
455.5	32316.61
455.705	32437.44
455.911	31231.18
456.117	30981.33
456.323	30610.65
456.529	28591.35
456.735	29906.15
456.941	29277.42
457.147	28669.17
457.352	27870.47
457.558	27575.56
457.764	27692.29
457.97	27041.04
458.176	26416.41
458.381	26508.57
458.587	25249.07
458.793	24988.97
458.999	23786.82
459.204	25335.08
459.41	24935.73
459.616	23334.21
459.821	23129.42
460.027	23035.21
460.233	22429.01
460.438	21869.92
460.644	22080.86
460.85	20964.71
461.055	20649.33
461.261	20538.74
461.466	18984.33
461.672	18318.74
461.878	19608.96
462.083	18376.08
462.289	18087.32
462.494	17872.28
462.7	17218.98
462.905	16575.92
463.111	17128.87
463.316	17280.42
463.522	16919.98
463.727	17139.11
463.932	17001.9
464.138	16526.77
464.343	16690.6
464.549	16221.62
464.754	16844.2
464.959	16623.02
465.165	16688.56
465.37	16022.97
465.575	15603.13
465.781	16025.01
465.986	16188.85
466.191	15564.22
466.397	15416.77
466.602	14382.54
466.807	15099.33
467.012	15005.13
467.218	15117.76
467.423	14833.1
467.628	14941.64
467.833	15551.93
