Data from USB4F104151__8__12-26-58-038.txt Node

Date: Fri Mar 14 12:26:58 EDT 2025
User: louis
Spectrometer: USB4F10415
Trigger mode: 4
Integration Time (sec): 2.000000E-2
Scans to average: 1
Electric dark correction enabled: true
Nonlinearity correction enabled: false
Boxcar width: 0
XAxis mode: Wavelengths
Number of Pixels in Spectrum: 3648
>>>>>Begin Spectral Data<<<<<
178.204	-55.47
178.424	-55.47
178.644	-55.47
178.864	-108.71
179.084	-106.67
179.304	-10.41
179.524	16.21
179.744	-37.03
179.964	1.88
180.184	44.88
180.404	32.6
180.624	61.27
180.844	-30.89
181.064	-57.51
181.283	38.74
181.503	38.74
181.723	-98.47
181.943	-30.89
182.163	51.03
182.383	40.79
182.602	30.55
182.822	18.26
183.042	40.79
183.262	-24.75
183.482	-28.84
183.701	-30.89
183.921	32.6
184.141	18.26
184.361	83.8
184.58	28.5
184.8	-0.17
185.02	1.88
185.239	42.84
185.459	36.69
185.679	104.28
185.898	-16.55
186.118	26.45
186.338	-73.9
186.557	44.88
186.777	-55.47
186.997	57.17
187.216	-4.27
187.436	-18.6
187.655	-41.13
187.875	98.13
188.095	8.02
188.314	77.65
188.534	28.5
188.753	-80.04
188.973	87.89
189.192	116.56
189.412	102.23
189.631	34.64
189.851	5.97
190.07	69.46
190.29	79.7
190.509	24.4
190.729	38.74
190.948	55.12
191.168	108.37
191.387	59.22
191.607	69.46
191.826	63.32
192.045	-0.17
192.265	14.17
192.484	65.36
192.704	-28.84
192.923	24.4
193.142	106.32
193.362	48.98
193.581	48.98
193.8	-43.18
194.02	38.74
194.239	24.4
194.458	63.32
194.678	22.36
194.897	55.12
195.116	-12.46
195.335	63.32
195.555	-32.94
195.774	-32.94
195.993	1.88
196.212	-18.6
196.432	-43.18
196.651	-39.08
196.87	51.03
197.089	46.93
197.308	46.93
197.528	69.46
197.747	-8.36
197.966	16.21
198.185	100.18
198.404	-0.17
198.623	34.64
198.842	44.88
199.062	-8.36
199.281	83.8
199.5	42.84
199.719	38.74
199.938	44.88
200.157	-51.37
200.376	48.98
200.595	67.41
200.814	16.21
201.033	24.4
201.252	36.69
201.471	53.08
201.69	79.7
201.909	-2.22
202.128	55.12
202.347	71.51
202.566	14.17
202.785	40.79
203.004	-34.99
203.223	91.99
203.442	-4.27
203.661	32.6
203.879	89.94
204.098	67.41
204.317	5.97
204.536	26.45
204.755	69.46
204.974	48.98
205.193	12.12
205.411	77.65
205.63	28.5
205.849	32.6
206.068	-41.13
206.287	34.64
206.505	5.97
206.724	-10.41
206.943	-4.27
207.162	-12.46
207.381	3.93
207.599	-28.84
207.818	1.88
208.037	24.4
208.255	-20.65
208.474	10.07
208.693	42.84
208.911	38.74
209.13	63.32
209.349	12.12
209.567	71.51
209.786	73.56
210.005	83.8
210.223	34.64
210.442	53.08
210.661	26.45
210.879	42.84
211.098	67.41
211.316	114.52
211.535	44.88
211.753	114.52
211.972	118.61
212.191	-16.55
212.409	51.03
212.628	28.5
212.846	30.55
213.065	30.55
213.283	-18.6
213.502	53.08
213.72	87.89
213.938	-32.94
214.157	40.79
214.375	24.4
214.594	53.08
214.812	69.46
215.031	3.93
215.249	-67.75
215.467	-26.79
215.686	-39.08
215.904	69.46
216.122	38.74
216.341	-6.31
216.559	16.21
216.778	34.64
216.996	18.26
217.214	-22.7
217.432	32.6
217.651	-4.27
217.869	-92.33
218.087	18.26
218.306	-6.31
218.524	91.99
218.742	-16.55
218.96	-34.99
219.179	5.97
219.397	46.93
219.615	-41.13
219.833	-24.75
220.051	-8.36
220.27	-6.31
220.488	8.02
220.706	48.98
220.924	-67.75
221.142	26.45
221.36	28.5
221.578	65.36
221.796	5.97
222.015	34.64
222.233	61.27
222.451	98.13
222.669	83.8
222.887	-16.55
223.105	38.74
223.323	24.4
223.541	10.07
223.759	100.18
223.977	40.79
224.195	51.03
224.413	22.36
224.631	65.36
224.849	79.7
225.067	12.12
225.285	46.93
225.503	40.79
225.721	-16.55
225.939	59.22
226.157	79.7
226.375	55.12
226.592	8.02
226.81	1.88
227.028	73.56
227.246	51.03
227.464	-14.51
227.682	55.12
227.9	36.69
228.117	40.79
228.335	1.88
228.553	8.02
228.771	34.64
228.989	100.18
229.206	71.51
229.424	57.17
229.642	-26.79
229.86	46.93
230.077	59.22
230.295	-22.7
230.513	-4.27
230.731	30.55
230.948	59.22
231.166	108.37
231.384	16.21
231.601	5.97
231.819	98.13
232.037	16.21
232.254	-22.7
232.472	75.6
232.689	42.84
232.907	20.31
233.125	32.6
233.342	-30.89
233.56	16.21
233.777	12.12
233.995	32.6
234.213	87.89
234.43	59.22
234.648	5.97
234.865	65.36
235.083	53.08
235.3	10.07
235.518	42.84
235.735	167.76
235.953	55.12
236.17	-32.94
236.388	14.17
236.605	38.74
236.822	26.45
237.04	-16.55
237.257	1.88
237.475	20.31
237.692	42.84
237.909	10.07
238.127	10.07
238.344	-24.75
238.562	3.93
238.779	-10.41
238.996	18.26
239.214	26.45
239.431	30.55
239.648	-37.03
239.865	69.46
240.083	77.65
240.3	26.45
240.517	-39.08
240.735	8.02
240.952	53.08
241.169	8.02
241.386	18.26
241.603	42.84
241.821	-104.62
242.038	53.08
242.255	71.51
242.472	-30.89
242.689	-30.89
242.907	26.45
243.124	-14.51
243.341	-6.31
243.558	12.12
243.775	53.08
243.992	-0.17
244.209	51.03
244.426	30.55
244.643	24.4
244.86	51.03
245.078	-28.84
245.295	61.27
245.512	10.07
245.729	-39.08
245.946	-18.6
246.163	34.64
246.38	22.36
246.597	22.36
246.814	12.12
247.031	85.84
247.248	53.08
247.464	-14.51
247.681	18.26
247.898	38.74
248.115	24.4
248.332	-6.31
248.549	69.46
248.766	69.46
248.983	-22.7
249.2	71.51
249.417	26.45
249.633	65.36
249.85	-8.36
250.067	-45.23
250.284	38.74
250.501	48.98
250.717	-18.6
250.934	-32.94
251.151	38.74
251.368	100.18
251.585	55.12
251.801	63.32
252.018	-18.6
252.235	73.56
252.451	34.64
252.668	38.74
252.885	-6.31
253.102	24.4
253.318	55.12
253.535	-16.55
253.752	5.97
253.968	85.84
254.185	1.88
254.401	16.21
254.618	20.31
254.835	85.84
255.051	71.51
255.268	48.98
255.484	-18.6
255.701	32.6
255.917	1.88
256.134	5.97
256.351	61.27
256.567	10.07
256.784	40.79
257	-32.94
257.217	5.97
257.433	71.51
257.65	143.19
257.866	36.69
258.082	-8.36
258.299	1.88
258.515	32.6
258.732	89.94
258.948	26.45
259.165	59.22
259.381	65.36
259.597	-4.27
259.814	-20.65
260.03	89.94
260.246	89.94
260.463	-0.17
260.679	73.56
260.895	38.74
261.112	-8.36
261.328	32.6
261.544	63.32
261.761	67.41
261.977	24.4
262.193	-34.99
262.409	89.94
262.626	40.79
262.842	48.98
263.058	53.08
263.274	57.17
263.49	38.74
263.707	96.08
263.923	5.97
264.139	12.12
264.355	-6.31
264.571	40.79
264.787	59.22
265.004	94.04
265.22	-43.18
265.436	1.88
265.652	-10.41
265.868	-2.22
266.084	8.02
266.3	12.12
266.516	-10.41
266.732	38.74
266.948	130.9
267.164	-16.55
267.38	42.84
267.596	-12.46
267.812	18.26
268.028	42.84
268.244	22.36
268.46	-0.17
268.676	-49.32
268.892	69.46
269.108	61.27
269.324	20.31
269.54	-18.6
269.756	67.41
269.972	-26.79
270.188	-8.36
270.403	55.12
270.619	5.97
270.835	-22.7
271.051	53.08
271.267	-63.66
271.483	24.4
271.698	8.02
271.914	73.56
272.13	-4.27
272.346	30.55
272.562	106.32
272.777	71.51
272.993	63.32
273.209	32.6
273.425	14.17
273.64	36.69
273.856	57.17
274.072	67.41
274.287	98.13
274.503	14.17
274.719	-4.27
274.934	32.6
275.15	8.02
275.366	-14.51
275.581	59.22
275.797	112.47
276.012	44.88
276.228	38.74
276.444	61.27
276.659	57.17
276.875	-71.85
277.09	46.93
277.306	30.55
277.521	36.69
277.737	1.88
277.952	51.03
278.168	73.56
278.383	-8.36
278.599	22.36
278.814	46.93
279.03	10.07
279.245	-14.51
279.461	83.8
279.676	26.45
279.892	-0.17
280.107	51.03
280.322	-8.36
280.538	100.18
280.753	53.08
280.969	51.03
281.184	81.75
281.399	36.69
281.615	1.88
281.83	8.02
282.045	-2.22
282.26	34.64
282.476	67.41
282.691	71.51
282.906	40.79
283.122	67.41
283.337	-24.75
283.552	57.17
283.767	10.07
283.983	67.41
284.198	48.98
284.413	55.12
284.628	-41.13
284.843	8.02
285.058	-6.31
285.274	57.17
285.489	-39.08
285.704	34.64
285.919	26.45
286.134	40.79
286.349	67.41
286.564	104.28
286.779	44.88
286.995	-14.51
287.21	96.08
287.425	118.61
287.64	44.88
287.855	53.08
288.07	-30.89
288.285	3.93
288.5	75.6
288.715	-14.51
288.93	-8.36
289.145	48.98
289.36	102.23
289.575	44.88
289.79	28.5
290.004	32.6
290.219	75.6
290.434	55.12
290.649	5.97
290.864	1.88
291.079	42.84
291.294	53.08
291.509	28.5
291.724	81.75
291.938	24.4
292.153	145.24
292.368	63.32
292.583	-45.23
292.798	-20.65
293.012	-0.17
293.227	46.93
293.442	38.74
293.657	108.37
293.871	-30.89
294.086	-0.17
294.301	42.84
294.516	91.99
294.73	44.88
294.945	16.21
295.16	18.26
295.374	53.08
295.589	67.41
295.804	51.03
296.018	28.5
296.233	22.36
296.447	30.55
296.662	22.36
296.877	98.13
297.091	46.93
297.306	-8.36
297.52	-14.51
297.735	38.74
297.949	46.93
298.164	16.21
298.378	14.17
298.593	40.79
298.807	28.5
299.022	28.5
299.236	8.02
299.451	-0.17
299.665	-24.75
299.88	59.22
300.094	22.36
300.309	10.07
300.523	-4.27
300.737	114.52
300.952	79.7
301.166	73.56
301.381	61.27
301.595	-14.51
301.809	-30.89
302.024	-2.22
302.238	-39.08
302.452	-30.89
302.667	81.75
302.881	53.08
303.095	28.5
303.309	46.93
303.524	-53.42
303.738	81.75
303.952	-30.89
304.166	-4.27
304.381	-24.75
304.595	81.75
304.809	77.65
305.023	38.74
305.237	-65.71
305.452	-55.47
305.666	22.36
305.88	51.03
306.094	40.79
306.308	40.79
306.522	83.8
306.736	61.27
306.95	65.36
307.164	24.4
307.379	-24.75
307.593	59.22
307.807	83.8
308.021	-26.79
308.235	26.45
308.449	36.69
308.663	-45.23
308.877	69.46
309.091	51.03
309.305	24.4
309.519	34.64
309.733	79.7
309.947	28.5
310.161	137.04
310.374	26.45
310.588	20.31
310.802	8.02
311.016	26.45
311.23	3.93
311.444	71.51
311.658	40.79
311.872	63.32
312.085	-6.31
312.299	61.27
312.513	24.4
312.727	73.56
312.941	30.55
313.154	-6.31
313.368	40.79
313.582	48.98
313.796	10.07
314.009	61.27
314.223	40.79
314.437	-4.27
314.651	48.98
314.864	34.64
315.078	30.55
315.292	44.88
315.505	5.97
315.719	57.17
315.933	40.79
316.146	34.64
316.36	5.97
316.573	38.74
316.787	34.64
317.001	51.03
317.214	28.5
317.428	-49.32
317.641	-39.08
317.855	-8.36
318.068	24.4
318.282	-4.27
318.495	65.36
318.709	8.02
318.922	36.69
319.136	98.13
319.349	96.08
319.563	65.36
319.776	-88.23
319.99	48.98
320.203	44.88
320.417	32.6
320.63	26.45
320.843	130.9
321.057	12.12
321.27	59.22
321.483	16.21
321.697	8.02
321.91	67.41
322.124	55.12
322.337	8.02
322.55	5.97
322.763	91.99
322.977	38.74
323.19	-24.75
323.403	149.33
323.617	3.93
323.83	28.5
324.043	71.51
324.256	83.8
324.469	-8.36
324.683	36.69
324.896	10.07
325.109	-0.17
325.322	59.22
325.535	-14.51
325.748	10.07
325.962	-6.31
326.175	-8.36
326.388	59.22
326.601	106.32
326.814	26.45
327.027	51.03
327.24	26.45
327.453	24.4
327.666	40.79
327.879	73.56
328.092	-12.46
328.305	-26.79
328.518	48.98
328.731	67.41
328.944	3.93
329.157	69.46
329.37	-8.36
329.583	42.84
329.796	40.79
330.009	26.45
330.222	12.12
330.435	-14.51
330.648	69.46
330.861	124.76
331.073	46.93
331.286	77.65
331.499	63.32
331.712	-37.03
331.925	30.55
332.138	-49.32
332.35	81.75
332.563	20.31
332.776	51.03
332.989	-2.22
333.202	44.88
333.414	-6.31
333.627	-16.55
333.84	75.6
334.053	59.22
334.265	-20.65
334.478	75.6
334.691	-10.41
334.903	67.41
335.116	98.13
335.329	-20.65
335.541	44.88
335.754	118.61
335.966	16.21
336.179	63.32
336.392	75.6
336.604	-2.22
336.817	112.47
337.029	28.5
337.242	51.03
337.454	48.98
337.667	-0.17
337.88	30.55
338.092	12.12
338.305	36.69
338.517	85.84
338.729	61.27
338.942	153.43
339.154	87.89
339.367	-10.41
339.579	96.08
339.792	24.4
340.004	8.02
340.217	24.4
340.429	3.93
340.641	83.8
340.854	14.17
341.066	89.94
341.278	81.75
341.491	24.4
341.703	38.74
341.915	8.02
342.128	59.22
342.34	67.41
342.552	-8.36
342.764	-24.75
342.977	28.5
343.189	-69.8
343.401	-4.27
343.613	10.07
343.826	18.26
344.038	12.12
344.25	-18.6
344.462	102.23
344.674	20.31
344.886	28.5
345.099	24.4
345.311	-8.36
345.523	34.64
345.735	26.45
345.947	22.36
346.159	32.6
346.371	18.26
346.583	-10.41
346.795	126.8
347.007	53.08
347.219	55.12
347.431	44.88
347.643	135
347.855	46.93
348.067	20.31
348.279	-45.23
348.491	108.37
348.703	-63.66
348.915	53.08
349.127	-71.85
349.339	24.4
349.551	38.74
349.763	20.31
349.975	36.69
350.187	30.55
350.399	42.84
350.61	96.08
350.822	69.46
351.034	34.64
351.246	71.51
351.458	63.32
351.669	126.8
351.881	79.7
352.093	30.55
352.305	81.75
352.517	55.12
352.728	106.32
352.94	-57.51
353.152	44.88
353.363	44.88
353.575	38.74
353.787	77.65
353.999	67.41
354.21	73.56
354.422	16.21
354.633	42.84
354.845	8.02
355.057	42.84
355.268	-16.55
355.48	69.46
355.692	128.85
355.903	61.27
356.115	100.18
356.326	5.97
356.538	77.65
356.749	69.46
356.961	48.98
357.172	100.18
357.384	28.5
357.595	147.28
357.807	1.88
358.018	42.84
358.23	-39.08
358.441	42.84
358.653	20.31
358.864	16.21
359.075	3.93
359.287	71.51
359.498	98.13
359.709	-47.27
359.921	48.98
360.132	85.84
360.344	10.07
360.555	-0.17
360.766	112.47
360.977	73.56
361.189	18.26
361.4	18.26
361.611	-6.31
361.823	71.51
362.034	69.46
362.245	28.5
362.456	67.41
362.667	126.8
362.879	30.55
363.09	61.27
363.301	61.27
363.512	28.5
363.723	12.12
363.935	-22.7
364.146	46.93
364.357	-0.17
364.568	57.17
364.779	36.69
364.99	61.27
365.201	-12.46
365.412	36.69
365.623	-18.6
365.834	128.85
366.045	38.74
366.256	83.8
366.467	87.89
366.678	-45.23
366.889	1.88
367.1	18.26
367.311	63.32
367.522	-4.27
367.733	36.69
367.944	12.12
368.155	30.55
368.366	30.55
368.577	61.27
368.788	-4.27
368.999	28.5
369.209	-0.17
369.42	91.99
369.631	108.37
369.842	44.88
370.053	96.08
370.264	81.75
370.474	22.36
370.685	46.93
370.896	-8.36
371.107	87.89
371.317	24.4
371.528	18.26
371.739	65.36
371.95	48.98
372.16	132.95
372.371	-45.23
372.582	71.51
372.792	5.97
373.003	44.88
373.214	110.42
373.424	51.03
373.635	36.69
373.846	91.99
374.056	51.03
374.267	18.26
374.477	10.07
374.688	91.99
374.898	30.55
375.109	-30.89
375.319	36.69
375.53	89.94
375.74	-37.03
375.951	69.46
376.161	67.41
376.372	16.21
376.582	69.46
376.793	36.69
377.003	-14.51
377.214	5.97
377.424	55.12
377.635	77.65
377.845	51.03
378.055	-0.17
378.266	24.4
378.476	12.12
378.686	-0.17
378.897	-0.17
379.107	36.69
379.317	8.02
379.528	46.93
379.738	79.7
379.948	30.55
380.158	61.27
380.369	75.6
380.579	77.65
380.789	63.32
380.999	77.65
381.21	89.94
381.42	57.17
381.63	8.02
381.84	106.32
382.05	40.79
382.261	5.97
382.471	100.18
382.681	71.51
382.891	12.12
383.101	36.69
383.311	42.84
383.521	61.27
383.731	71.51
383.941	59.22
384.151	71.51
384.361	-0.17
384.571	75.6
384.781	42.84
384.991	137.04
385.201	85.84
385.411	30.55
385.621	55.12
385.831	10.07
386.041	71.51
386.251	36.69
386.461	46.93
386.671	67.41
386.881	57.17
387.091	42.84
387.301	81.75
387.511	46.93
387.72	71.51
387.93	104.28
388.14	61.27
388.35	12.12
388.56	73.56
388.769	51.03
388.979	5.97
389.189	14.17
389.399	61.27
389.609	8.02
389.818	57.17
390.028	61.27
390.238	100.18
390.447	61.27
390.657	89.94
390.867	36.69
391.076	32.6
391.286	-28.84
391.496	-6.31
391.705	96.08
391.915	112.47
392.125	53.08
392.334	104.28
392.544	61.27
392.753	83.8
392.963	59.22
393.172	18.26
393.382	63.32
393.591	102.23
393.801	79.7
394.01	26.45
394.22	79.7
394.429	24.4
394.639	67.41
394.848	34.64
395.058	61.27
395.267	32.6
395.477	34.64
395.686	-8.36
395.895	81.75
396.105	110.42
396.314	44.88
396.524	75.6
396.733	42.84
396.942	79.7
397.152	38.74
397.361	59.22
397.57	108.37
397.78	89.94
397.989	61.27
398.198	112.47
398.407	126.8
398.617	91.99
398.826	94.04
399.035	87.89
399.244	75.6
399.453	91.99
399.663	38.74
399.872	51.03
400.081	75.6
400.29	83.8
400.499	51.03
400.708	110.42
400.917	77.65
401.127	42.84
401.336	5.97
401.545	165.71
401.754	118.61
401.963	55.12
402.172	65.36
402.381	114.52
402.59	110.42
402.799	106.32
403.008	108.37
403.217	100.18
403.426	116.56
403.635	137.04
403.844	124.76
404.053	128.85
404.262	55.12
404.471	192.34
404.68	128.85
404.888	51.03
405.097	79.7
405.306	155.47
405.515	159.57
405.724	118.61
405.933	145.24
406.142	188.24
406.35	110.42
406.559	165.71
406.768	188.24
406.977	198.48
407.185	89.94
407.394	169.81
407.603	96.08
407.812	132.95
408.02	132.95
408.229	151.38
408.438	137.04
408.646	159.57
408.855	114.52
409.064	173.91
409.272	124.76
409.481	221.01
409.69	245.59
409.898	225.11
410.107	216.91
410.315	237.39
410.524	223.06
410.733	235.35
410.941	245.59
411.15	362.32
411.358	245.59
411.567	276.31
411.775	286.54
411.984	331.6
412.192	356.18
412.401	290.64
412.609	325.46
412.818	390.99
413.026	454.48
413.234	286.54
413.443	388.94
413.651	429.9
413.86	458.57
414.068	431.95
414.276	362.32
414.485	397.14
414.693	472.91
414.901	477.01
415.11	491.34
415.318	567.12
415.526	563.02
415.734	585.55
415.943	616.27
416.151	587.6
416.359	517.97
416.567	581.45
416.776	608.08
416.984	708.43
417.192	776.01
417.4	681.8
417.608	702.28
417.817	780.11
418.025	730.95
418.233	872.26
418.441	886.6
418.649	931.66
418.857	939.85
419.065	948.04
419.273	945.99
419.481	1005.38
419.689	1107.78
419.897	1064.77
420.105	1195.84
420.313	1163.08
420.521	1204.03
420.729	1234.75
420.937	1242.95
421.145	1333.06
421.353	1378.11
421.561	1414.98
421.769	1388.35
421.977	1503.04
422.185	1484.61
422.393	1584.96
422.601	1734.46
422.809	1736.51
423.017	1621.82
423.224	1773.37
423.432	1773.37
423.64	1851.19
423.848	1990.45
424.056	1998.65
424.263	2055.99
424.471	2064.18
424.679	2205.49
424.887	2301.75
425.094	2332.47
425.302	2357.04
425.51	2428.72
425.718	2475.82
425.925	2662.19
426.133	2635.57
426.341	2752.3
426.548	2959.14
426.756	2909.99
426.964	3020.58
427.171	3082.02
427.379	3198.76
427.586	3131.17
427.794	3284.77
428.001	3381.03
428.209	3618.59
428.417	3657.5
428.624	3919.64
428.832	3847.96
429.039	3837.72
429.247	3833.63
429.454	4261.65
429.662	4509.46
429.869	4177.69
430.076	4591.38
430.284	4417.3
430.491	4620.05
430.699	4734.73
430.906	4777.74
431.114	4917
431.321	5197.57
431.528	5039.88
431.736	5392.13
431.943	5869.31
432.15	5590.78
432.358	5705.47
432.565	6043.39
432.772	6078.2
432.979	6217.46
433.187	6317.81
433.394	6360.82
433.601	6921.96
433.808	6774.51
434.016	6866.67
434.223	7122.66
434.43	7505.63
434.637	7489.25
434.844	7790.3
435.052	7970.52
435.259	7931.61
435.466	8060.63
435.673	7919.32
435.88	8433.36
436.087	8959.69
436.294	8883.92
436.501	8711.89
436.708	8892.11
436.915	9277.13
437.122	9674.43
437.329	9557.7
437.537	9912
437.743	10100.41
437.95	10098.36
438.157	10542.77
438.364	10886.83
438.571	10915.5
438.778	10884.78
438.985	12056.22
439.192	11572.9
439.399	12041.89
439.606	11577
439.813	12218.01
440.02	13074.06
440.227	12701.33
440.433	12715.67
440.64	12949.14
440.847	12942.99
441.054	13311.63
441.261	14216.83
441.467	13983.36
441.674	14347.9
441.881	14986.86
442.088	14954.1
442.294	14601.85
442.501	15142.51
442.708	15472.23
442.914	16119.39
443.121	16578.14
443.328	16449.11
443.534	17565.26
443.741	16719.45
443.948	16625.24
444.154	18177.6
444.361	18005.57
444.568	18114.11
444.774	17946.18
444.981	18142.78
445.187	18611.77
445.394	19435.05
445.6	19355.18
445.807	21397.01
446.013	20225.57
446.22	20592.16
446.426	21292.56
446.633	21743.11
446.839	22707.71
447.046	21407.25
447.252	22613.5
447.459	22818.3
447.665	22691.32
447.871	23526.89
448.078	24460.77
448.284	23234.03
448.491	24374.75
448.697	25085.4
448.903	25499.09
449.11	25587.15
449.316	24964.57
449.522	26246.6
449.728	26695.1
449.935	26443.2
450.141	26416.58
450.347	27116.98
450.553	26256.84
450.76	26934.71
450.966	27805.1
451.172	27313.59
451.378	28163.5
451.584	27719.09
451.791	28091.82
451.997	28155.3
452.203	28462.5
452.409	28765.6
452.615	28495.27
452.821	27340.21
453.027	27364.79
453.233	28603.81
453.44	27639.22
453.646	27704.75
453.852	28063.15
454.058	28405.16
454.264	27549.1
454.47	27981.23
454.676	27366.84
454.882	28368.29
455.088	25927.11
455.294	26217.93
455.5	26371.52
455.705	26801.6
455.911	25785.8
456.117	25218.52
456.323	25413.07
456.529	23735.79
456.735	24856.03
456.941	23926.25
457.147	23723.5
457.352	23279.09
457.558	22695.42
457.764	22834.68
457.97	22324.74
458.176	22124.04
458.381	21921.29
458.587	20579.87
458.793	20733.46
458.999	19879.46
459.204	21188.11
459.41	20600.35
459.616	19387.95
459.821	19207.73
460.027	19211.82
460.233	18748.98
460.438	17911.36
460.644	18136.64
460.85	17186.38
461.055	17116.75
461.261	16909.91
461.466	15578.73
461.672	15152.75
461.878	16164.45
462.083	15513.19
462.289	14988.91
462.494	14777.97
462.7	14007.94
462.905	13823.62
463.111	14249.6
463.316	14382.71
463.522	13999.74
463.727	14100.09
463.932	13964.93
464.138	14102.14
464.343	13717.12
464.549	13416.07
464.754	13993.6
464.959	13919.87
465.165	13784.71
465.37	13338.25
465.575	12635.8
465.781	13418.12
465.986	13465.22
466.191	12990.1
466.397	12517.01
466.602	12416.66
466.807	12572.31
467.012	12660.37
467.218	12549.78
467.423	12381.85
467.628	12478.1
467.833	13155.98
468.038	12383.9
468.244	12162.72
