Data from USB4F104151__26__12-27-10-875.txt Node

Date: Fri Mar 14 12:27:10 EDT 2025
User: louis
Spectrometer: USB4F10415
Trigger mode: 4
Integration Time (sec): 2.000000E-2
Scans to average: 1
Electric dark correction enabled: true
Nonlinearity correction enabled: false
Boxcar width: 0
XAxis mode: Wavelengths
Number of Pixels in Spectrum: 3648
>>>>>Begin Spectral Data<<<<<
178.204	-55.98
178.424	-55.98
178.644	-55.98
178.864	-74.41
179.084	-45.74
179.304	-33.45
179.524	-23.21
179.744	-66.22
179.964	44.37
180.184	68.95
180.404	-8.87
180.624	58.71
180.844	56.66
181.064	-15.02
181.283	-12.97
181.503	-74.41
181.723	5.46
181.943	-78.51
182.163	77.14
182.383	44.37
182.602	101.72
182.822	64.85
183.042	7.51
183.262	-10.92
183.482	103.76
183.701	-8.87
183.921	15.7
184.141	34.13
184.361	50.52
184.58	-15.02
184.8	32.08
185.02	-19.11
185.239	32.08
185.459	-4.78
185.679	83.28
185.898	71
186.118	36.18
186.338	-10.92
186.557	25.94
186.777	-19.11
186.997	21.85
187.216	64.85
187.436	66.9
187.655	40.28
187.875	56.66
188.095	148.82
188.314	40.28
188.534	38.23
188.753	5.46
188.973	120.15
189.192	122.2
189.412	30.04
189.631	118.1
189.851	42.32
190.07	77.14
190.29	-2.73
190.509	5.46
190.729	19.8
190.948	101.72
191.168	142.68
191.387	99.67
191.607	1.37
191.826	-2.73
192.045	52.56
192.265	85.33
192.484	60.76
192.704	21.85
192.923	-17.07
193.142	42.32
193.362	40.28
193.581	77.14
193.8	19.8
194.02	105.81
194.239	25.94
194.458	36.18
194.678	-2.73
194.897	15.7
195.116	66.9
195.335	23.89
195.555	54.61
195.774	-4.78
195.993	-25.26
196.212	46.42
196.432	5.46
196.651	99.67
196.87	27.99
197.089	68.95
197.308	60.76
197.528	46.42
197.747	-2.73
197.966	25.94
198.185	62.8
198.404	-6.83
198.623	46.42
198.842	19.8
199.062	30.04
199.281	91.48
199.5	34.13
199.719	97.62
199.938	38.23
200.157	60.76
200.376	32.08
200.595	44.37
200.814	17.75
201.033	15.7
201.252	79.19
201.471	62.8
201.69	111.96
201.909	66.9
202.128	81.24
202.347	83.28
202.566	52.56
202.785	95.57
203.004	-55.98
203.223	105.81
203.442	85.33
203.661	54.61
203.879	5.46
204.098	124.24
204.317	32.08
204.536	103.76
204.755	46.42
204.974	91.48
205.193	128.34
205.411	36.18
205.63	46.42
205.849	107.86
206.068	-27.31
206.287	73.04
206.505	38.23
206.724	11.61
206.943	48.47
207.162	71
207.381	60.76
207.599	27.99
207.818	-4.78
208.037	77.14
208.255	75.09
208.474	38.23
208.693	71
208.911	44.37
209.13	19.8
209.349	42.32
209.567	-21.16
209.786	48.47
210.005	-8.87
210.223	36.18
210.442	48.47
210.661	97.62
210.879	-19.11
211.098	64.85
211.316	60.76
211.535	109.91
211.753	25.94
211.972	-10.92
212.191	19.8
212.409	-8.87
212.628	54.61
212.846	11.61
213.065	21.85
213.283	97.62
213.502	21.85
213.72	62.8
213.938	-0.68
214.157	77.14
214.375	11.61
214.594	9.56
214.812	68.95
215.031	36.18
215.249	48.47
215.467	71
215.686	-72.36
215.904	75.09
216.122	19.8
216.341	111.96
216.559	19.8
216.778	111.96
216.996	27.99
217.214	83.28
217.432	46.42
217.651	87.38
217.869	11.61
218.087	32.08
218.306	-0.68
218.524	64.85
218.742	-12.97
218.96	46.42
219.179	105.81
219.397	75.09
219.615	93.52
219.833	46.42
220.051	17.75
220.27	109.91
220.488	30.04
220.706	40.28
220.924	48.47
221.142	52.56
221.36	52.56
221.578	79.19
221.796	1.37
222.015	128.34
222.233	36.18
222.451	48.47
222.669	48.47
222.887	46.42
223.105	-4.78
223.323	77.14
223.541	-17.07
223.759	60.76
223.977	34.13
224.195	21.85
224.413	73.04
224.631	95.57
224.849	7.51
225.067	27.99
225.285	95.57
225.503	19.8
225.721	38.23
225.939	46.42
226.157	-19.11
226.375	101.72
226.592	-43.69
226.81	87.38
227.028	44.37
227.246	85.33
227.464	77.14
227.682	54.61
227.9	146.77
228.117	73.04
228.335	13.65
228.553	52.56
228.771	71
228.989	40.28
229.206	71
229.424	60.76
229.642	105.81
229.86	-53.93
230.077	54.61
230.295	19.8
230.513	34.13
230.731	54.61
230.948	42.32
231.166	95.57
231.384	34.13
231.601	-33.45
231.819	3.41
232.037	25.94
232.254	81.24
232.472	11.61
232.689	5.46
232.907	-25.26
233.125	87.38
233.342	-12.97
233.56	-49.83
233.777	64.85
233.995	114
234.213	87.38
234.43	54.61
234.648	52.56
234.865	52.56
235.083	48.47
235.3	50.52
235.518	42.32
235.735	3.41
235.953	48.47
236.17	27.99
236.388	13.65
236.605	40.28
236.822	73.04
237.04	54.61
237.257	79.19
237.475	11.61
237.692	32.08
237.909	75.09
238.127	58.71
238.344	44.37
238.562	97.62
238.779	-21.16
238.996	46.42
239.214	44.37
239.431	101.72
239.648	42.32
239.865	89.43
240.083	97.62
240.3	17.75
240.517	77.14
240.735	52.56
240.952	60.76
241.169	85.33
241.386	40.28
241.603	68.95
241.821	25.94
242.038	36.18
242.255	3.41
242.472	13.65
242.689	-6.83
242.907	-33.45
243.124	48.47
243.341	91.48
243.558	30.04
243.775	9.56
243.992	38.23
244.209	89.43
244.426	73.04
244.643	132.44
244.86	-6.83
245.078	54.61
245.295	46.42
245.512	32.08
245.729	15.7
245.946	-10.92
246.163	48.47
246.38	15.7
246.597	32.08
246.814	73.04
247.031	54.61
247.248	-6.83
247.464	27.99
247.681	93.52
247.898	48.47
248.115	56.66
248.332	34.13
248.549	109.91
248.766	46.42
248.983	27.99
249.2	91.48
249.417	60.76
249.633	54.61
249.85	116.05
250.067	11.61
250.284	58.71
250.501	40.28
250.717	66.9
250.934	9.56
251.151	44.37
251.368	50.52
251.585	52.56
251.801	-15.02
252.018	11.61
252.235	89.43
252.451	34.13
252.668	64.85
252.885	-23.21
253.102	50.52
253.318	83.28
253.535	83.28
253.752	73.04
253.968	142.68
254.185	60.76
254.401	40.28
254.618	40.28
254.835	-2.73
255.051	32.08
255.268	19.8
255.484	93.52
255.701	27.99
255.917	146.77
256.134	54.61
256.351	181.59
256.567	-25.26
256.784	64.85
257	17.75
257.217	71
257.433	5.46
257.65	58.71
257.866	34.13
258.082	56.66
258.299	73.04
258.515	99.67
258.732	21.85
258.948	13.65
259.165	75.09
259.381	95.57
259.597	5.46
259.814	-6.83
260.03	116.05
260.246	46.42
260.463	99.67
260.679	68.95
260.895	-10.92
261.112	-0.68
261.328	38.23
261.544	105.81
261.761	95.57
261.977	46.42
262.193	44.37
262.409	42.32
262.626	73.04
262.842	99.67
263.058	7.51
263.274	68.95
263.49	-10.92
263.707	54.61
263.923	11.61
264.139	-35.5
264.355	58.71
264.571	179.54
264.787	48.47
265.004	7.51
265.22	7.51
265.436	44.37
265.652	77.14
265.868	93.52
266.084	64.85
266.3	-15.02
266.516	-37.55
266.732	122.2
266.948	85.33
267.164	25.94
267.38	68.95
267.596	120.15
267.812	-25.26
268.028	13.65
268.244	64.85
268.46	25.94
268.676	30.04
268.892	93.52
269.108	77.14
269.324	56.66
269.54	64.85
269.756	50.52
269.972	1.37
270.188	17.75
270.403	15.7
270.619	97.62
270.835	42.32
271.051	25.94
271.267	17.75
271.483	62.8
271.698	81.24
271.914	48.47
272.13	105.81
272.346	64.85
272.562	21.85
272.777	107.86
272.993	73.04
273.209	44.37
273.425	56.66
273.64	71
273.856	75.09
274.072	32.08
274.287	52.56
274.503	87.38
274.719	81.24
274.934	109.91
275.15	5.46
275.366	91.48
275.581	30.04
275.797	40.28
276.012	85.33
276.228	34.13
276.444	46.42
276.659	50.52
276.875	13.65
277.09	62.8
277.306	42.32
277.521	75.09
277.737	93.52
277.952	-39.59
278.168	71
278.383	21.85
278.599	46.42
278.814	-15.02
279.03	15.7
279.245	3.41
279.461	48.47
279.676	62.8
279.892	-15.02
280.107	13.65
280.322	-17.07
280.538	30.04
280.753	95.57
280.969	120.15
281.184	97.62
281.399	9.56
281.615	52.56
281.83	95.57
282.045	40.28
282.26	91.48
282.476	-10.92
282.691	124.24
282.906	64.85
283.122	46.42
283.337	52.56
283.552	36.18
283.767	15.7
283.983	107.86
284.198	87.38
284.413	46.42
284.628	17.75
284.843	95.57
285.058	50.52
285.274	32.08
285.489	48.47
285.704	50.52
285.919	-12.97
286.134	36.18
286.349	126.29
286.564	-25.26
286.779	48.47
286.995	27.99
287.21	52.56
287.425	97.62
287.64	42.32
287.855	30.04
288.07	17.75
288.285	9.56
288.5	79.19
288.715	77.14
288.93	23.89
289.145	-4.78
289.36	46.42
289.575	-23.21
289.79	52.56
290.004	66.9
290.219	25.94
290.434	19.8
290.649	105.81
290.864	87.38
291.079	105.81
291.294	130.39
291.509	42.32
291.724	5.46
291.938	25.94
292.153	44.37
292.368	42.32
292.583	30.04
292.798	83.28
293.012	64.85
293.227	19.8
293.442	73.04
293.657	66.9
293.871	36.18
294.086	75.09
294.301	111.96
294.516	36.18
294.73	46.42
294.945	19.8
295.16	27.99
295.374	5.46
295.589	38.23
295.804	-15.02
296.018	30.04
296.233	48.47
296.447	107.86
296.662	1.37
296.877	13.65
297.091	66.9
297.306	66.9
297.52	52.56
297.735	36.18
297.949	81.24
298.164	120.15
298.378	-10.92
298.593	48.47
298.807	-0.68
299.022	87.38
299.236	60.76
299.451	44.37
299.665	105.81
299.88	54.61
300.094	34.13
300.309	107.86
300.523	9.56
300.737	-6.83
300.952	52.56
301.166	64.85
301.381	19.8
301.595	60.76
301.809	62.8
302.024	-4.78
302.238	32.08
302.452	103.76
302.667	42.32
302.881	97.62
303.095	60.76
303.309	107.86
303.524	7.51
303.738	-19.11
303.952	7.51
304.166	60.76
304.381	-25.26
304.595	68.95
304.809	-49.83
305.023	46.42
305.237	46.42
305.452	17.75
305.666	32.08
305.88	83.28
306.094	36.18
306.308	73.04
306.522	68.95
306.736	5.46
306.95	58.71
307.164	27.99
307.379	75.09
307.593	140.63
307.807	52.56
308.021	99.67
308.235	15.7
308.449	-10.92
308.663	23.89
308.877	89.43
309.091	-6.83
309.305	83.28
309.519	23.89
309.733	27.99
309.947	1.37
310.161	89.43
310.374	87.38
310.588	99.67
310.802	-8.87
311.016	-4.78
311.23	50.52
311.444	64.85
311.658	54.61
311.872	93.52
312.085	54.61
312.299	60.76
312.513	48.47
312.727	75.09
312.941	21.85
313.154	99.67
313.368	58.71
313.582	85.33
313.796	-17.07
314.009	27.99
314.223	81.24
314.437	-6.83
314.651	107.86
314.864	3.41
315.078	79.19
315.292	83.28
315.505	-2.73
315.719	99.67
315.933	32.08
316.146	89.43
316.36	87.38
316.573	54.61
316.787	52.56
317.001	58.71
317.214	34.13
317.428	75.09
317.641	27.99
317.855	-0.68
318.068	25.94
318.282	95.57
318.495	79.19
318.709	77.14
318.922	-17.07
319.136	116.05
319.349	5.46
319.563	38.23
319.776	23.89
319.99	-29.35
320.203	1.37
320.417	81.24
320.63	60.76
320.843	103.76
321.057	103.76
321.27	122.2
321.483	81.24
321.697	17.75
321.91	71
322.124	13.65
322.337	32.08
322.55	7.51
322.763	71
322.977	42.32
323.19	3.41
323.403	13.65
323.617	25.94
323.83	146.77
324.043	46.42
324.256	109.91
324.469	32.08
324.683	60.76
324.896	21.85
325.109	56.66
325.322	19.8
325.535	81.24
325.748	134.48
325.962	-43.69
326.175	46.42
326.388	44.37
326.601	75.09
326.814	-10.92
327.027	122.2
327.24	66.9
327.453	64.85
327.666	79.19
327.879	36.18
328.092	89.43
328.305	83.28
328.518	97.62
328.731	95.57
328.944	89.43
329.157	40.28
329.37	54.61
329.583	27.99
329.796	134.48
330.009	52.56
330.222	19.8
330.435	44.37
330.648	3.41
330.861	15.7
331.073	116.05
331.286	17.75
331.499	-31.4
331.712	50.52
331.925	44.37
332.138	21.85
332.35	64.85
332.563	50.52
332.776	-8.87
332.989	42.32
333.202	50.52
333.414	73.04
333.627	44.37
333.84	48.47
334.053	114
334.265	1.37
334.478	7.51
334.691	54.61
334.903	99.67
335.116	32.08
335.329	91.48
335.541	89.43
335.754	93.52
335.966	9.56
336.179	95.57
336.392	52.56
336.604	134.48
336.817	71
337.029	38.23
337.242	50.52
337.454	11.61
337.667	11.61
337.88	118.1
338.092	40.28
338.305	77.14
338.517	7.51
338.729	50.52
338.942	99.67
339.154	50.52
339.367	50.52
339.579	87.38
339.792	58.71
340.004	83.28
340.217	-23.21
340.429	15.7
340.641	91.48
340.854	19.8
341.066	-4.78
341.278	148.82
341.491	120.15
341.703	-0.68
341.915	7.51
342.128	38.23
342.34	66.9
342.552	40.28
342.764	64.85
342.977	27.99
343.189	56.66
343.401	27.99
343.613	23.89
343.826	91.48
344.038	40.28
344.25	1.37
344.462	42.32
344.674	-2.73
344.886	44.37
345.099	44.37
345.311	-53.93
345.523	81.24
345.735	-8.87
345.947	99.67
346.159	27.99
346.371	36.18
346.583	50.52
346.795	83.28
347.007	93.52
347.219	30.04
347.431	11.61
347.643	103.76
347.855	34.13
348.067	85.33
348.279	79.19
348.491	66.9
348.703	-10.92
348.915	99.67
349.127	71
349.339	165.2
349.551	40.28
349.763	-0.68
349.975	23.89
350.187	124.24
350.399	7.51
350.61	71
350.822	38.23
351.034	-39.59
351.246	1.37
351.458	75.09
351.669	79.19
351.881	89.43
352.093	48.47
352.305	81.24
352.517	25.94
352.728	15.7
352.94	21.85
353.152	91.48
353.363	136.53
353.575	111.96
353.787	93.52
353.999	116.05
354.21	105.81
354.422	42.32
354.633	-33.45
354.845	19.8
355.057	17.75
355.268	95.57
355.48	85.33
355.692	56.66
355.903	66.9
356.115	25.94
356.326	66.9
356.538	50.52
356.749	71
356.961	77.14
357.172	116.05
357.384	23.89
357.595	111.96
357.807	114
358.018	93.52
358.23	85.33
358.441	50.52
358.653	109.91
358.864	34.13
359.075	60.76
359.287	62.8
359.498	85.33
359.709	25.94
359.921	38.23
360.132	44.37
360.344	44.37
360.555	38.23
360.766	83.28
360.977	66.9
361.189	93.52
361.4	27.99
361.611	89.43
361.823	124.24
362.034	27.99
362.245	-8.87
362.456	7.51
362.667	62.8
362.879	87.38
363.09	15.7
363.301	66.9
363.512	99.67
363.723	42.32
363.935	44.37
364.146	71
364.357	122.2
364.568	122.2
364.779	-2.73
364.99	60.76
365.201	52.56
365.412	136.53
365.623	17.75
365.834	118.1
366.045	9.56
366.256	132.44
366.467	40.28
366.678	114
366.889	46.42
367.1	21.85
367.311	-8.87
367.522	79.19
367.733	68.95
367.944	77.14
368.155	52.56
368.366	142.68
368.577	71
368.788	144.72
368.999	91.48
369.209	60.76
369.42	77.14
369.631	93.52
369.842	73.04
370.053	52.56
370.264	107.86
370.474	73.04
370.685	54.61
370.896	-8.87
371.107	21.85
371.317	-6.83
371.528	40.28
371.739	95.57
371.95	38.23
372.16	60.76
372.371	27.99
372.582	64.85
372.792	118.1
373.003	36.18
373.214	34.13
373.424	62.8
373.635	56.66
373.846	44.37
374.056	46.42
374.267	7.51
374.477	73.04
374.688	54.61
374.898	120.15
375.109	52.56
375.319	54.61
375.53	66.9
375.74	25.94
375.951	128.34
376.161	79.19
376.372	87.38
376.582	62.8
376.793	32.08
377.003	11.61
377.214	58.71
377.424	103.76
377.635	107.86
377.845	32.08
378.055	116.05
378.266	48.47
378.476	101.72
378.686	34.13
378.897	44.37
379.107	89.43
379.317	25.94
379.528	-31.4
379.738	60.76
379.948	38.23
380.158	95.57
380.369	89.43
380.579	79.19
380.789	3.41
380.999	58.71
381.21	114
381.42	118.1
381.63	68.95
381.84	103.76
382.05	50.52
382.261	58.71
382.471	109.91
382.681	134.48
382.891	103.76
383.101	95.57
383.311	77.14
383.521	54.61
383.731	103.76
383.941	44.37
384.151	-2.73
384.361	62.8
384.571	116.05
384.781	99.67
384.991	60.76
385.201	101.72
385.411	105.81
385.621	40.28
385.831	75.09
386.041	75.09
386.251	93.52
386.461	109.91
386.671	-15.02
386.881	36.18
387.091	42.32
387.301	27.99
387.511	68.95
387.72	126.29
387.93	11.61
388.14	42.32
388.35	38.23
388.56	109.91
388.769	95.57
388.979	83.28
389.189	-68.27
389.399	66.9
389.609	73.04
389.818	114
390.028	44.37
390.238	58.71
390.447	62.8
390.657	107.86
390.867	136.53
391.076	-6.83
391.286	128.34
391.496	122.2
391.705	83.28
391.915	81.24
392.125	93.52
392.334	27.99
392.544	62.8
392.753	83.28
392.963	48.47
393.172	85.33
393.382	105.81
393.591	73.04
393.801	77.14
394.01	142.68
394.22	38.23
394.429	120.15
394.639	64.85
394.848	50.52
395.058	161.11
395.267	107.86
395.477	157.01
395.686	54.61
395.895	83.28
396.105	120.15
396.314	91.48
396.524	48.47
396.733	89.43
396.942	68.95
397.152	62.8
397.361	126.29
397.57	116.05
397.78	60.76
397.989	50.52
398.198	212.31
398.407	81.24
398.617	136.53
398.826	77.14
399.035	91.48
399.244	68.95
399.453	118.1
399.663	71
399.872	95.57
400.081	89.43
400.29	114
400.499	95.57
400.708	120.15
400.917	83.28
401.127	66.9
401.336	99.67
401.545	126.29
401.754	181.59
401.963	134.48
402.172	68.95
402.381	124.24
402.59	136.53
402.799	75.09
403.008	183.63
403.217	81.24
403.426	116.05
403.635	130.39
403.844	152.91
404.053	81.24
404.262	75.09
404.471	140.63
404.68	109.91
404.888	146.77
405.097	132.44
405.306	171.35
405.515	148.82
405.724	120.15
405.933	189.78
406.142	204.11
406.35	218.45
406.559	126.29
406.768	197.97
406.977	251.22
407.185	218.45
407.394	124.24
407.603	130.39
407.812	214.35
408.02	189.78
408.229	134.48
408.438	173.39
408.646	185.68
408.855	175.44
409.064	273.75
409.272	232.79
409.481	210.26
409.69	159.06
409.898	243.03
410.107	255.31
410.315	234.83
410.524	230.74
410.733	308.56
410.941	240.98
411.15	382.29
411.358	257.36
411.567	292.18
411.775	316.75
411.984	370
412.192	322.9
412.401	316.75
412.609	337.23
412.818	324.94
413.026	333.14
413.234	382.29
413.443	445.77
413.651	408.91
413.86	456.01
414.068	519.5
414.276	490.83
414.485	503.12
414.693	554.32
414.901	546.12
415.11	470.35
415.318	537.93
415.526	519.5
415.734	488.78
415.943	558.41
416.151	689.48
416.359	617.8
416.567	720.2
416.776	607.56
416.984	705.87
417.192	761.16
417.4	734.54
417.608	777.55
417.817	814.41
418.025	685.39
418.233	898.38
418.441	857.42
418.649	834.89
418.857	937.29
419.065	1027.4
419.273	988.49
419.481	1000.77
419.689	1043.78
419.897	1158.47
420.105	1127.75
420.313	1152.32
420.521	1187.14
420.729	1283.39
420.937	1262.91
421.145	1387.84
421.353	1301.83
421.561	1350.98
421.769	1439.04
421.977	1578.3
422.185	1477.95
422.393	1611.07
422.601	1645.88
422.809	1666.36
423.017	1649.98
423.224	1846.59
423.432	1844.54
423.64	1822.01
423.848	1973.56
424.056	1883.45
424.263	2047.29
424.471	2057.53
424.679	2178.36
424.887	2186.55
425.094	2315.57
425.302	2379.06
425.51	2428.21
425.718	2557.23
425.925	2608.43
426.133	2663.72
426.341	2774.31
426.548	2880.81
426.756	2854.19
426.964	2868.52
427.171	3069.22
427.379	3237.16
427.586	3267.88
427.794	3218.72
428.001	3357.99
428.209	3634.46
428.417	3517.73
428.624	3798.3
428.832	3888.41
429.039	3800.35
429.247	3761.44
429.454	4031.77
429.662	4338.96
429.869	4238.61
430.076	4474.13
430.284	4314.39
430.491	4441.36
430.699	4773.13
430.906	4908.3
431.114	4877.58
431.321	5076.23
431.528	5164.29
431.736	5397.76
431.943	5590.27
432.15	5498.11
432.358	5674.24
432.565	6003.96
432.772	5666.05
432.979	6106.36
433.187	6282.49
433.394	6155.51
433.601	6716.65
433.808	6907.12
434.016	6685.94
434.223	6892.78
434.43	7365.86
434.637	7120.1
434.844	7711.97
435.052	7886.04
435.259	7886.04
435.466	7859.42
435.673	7849.18
435.88	8504.53
436.087	8651.99
436.294	8656.08
436.501	8604.88
436.708	8592.59
436.915	9176.27
437.122	9458.88
437.329	9395.4
437.537	9835.71
437.743	9866.43
437.95	9972.93
438.157	10503.35
438.364	10646.71
438.571	10595.51
438.778	10749.11
438.985	11789.47
439.192	11109.55
439.399	11768.99
439.606	11584.68
439.813	11920.54
440.02	12848.27
440.227	12614.8
440.433	12715.16
440.64	13048.97
440.847	12899.47
441.054	12827.79
441.261	14118.01
441.467	13943.94
441.674	14150.78
441.881	14746.74
442.088	14713.97
442.294	14476.41
442.501	14939.25
442.708	15252.59
442.914	15899.75
443.121	16512.09
443.328	16163.93
443.534	17214.54
443.741	16780.37
443.948	16487.51
444.154	17591.37
444.361	17486.92
444.568	17792.07
444.774	17640.52
444.981	17945.67
445.187	18449.47
445.394	19041.33
445.6	19010.61
445.807	21058.58
446.013	19897.38
446.22	20409.37
446.426	21234.71
446.633	21222.42
446.839	21937.16
447.046	21154.83
447.252	22154.24
447.459	22172.67
447.665	22275.07
447.871	23290.87
448.078	24230.88
448.284	23106.55
448.491	23718.89
448.697	24667.1
448.903	25166.81
449.11	25152.47
449.316	24890.33
449.522	25433.04
449.728	25983.94
449.935	26465.22
450.141	26106.82
450.347	26749.89
450.553	25895.88
450.76	26452.93
450.966	27311.03
451.172	26995.64
451.378	27554.74
451.584	27091.9
451.791	27751.34
451.997	27534.26
452.203	28195.75
452.409	28296.1
452.615	28036.01
452.821	27069.37
453.027	26590.14
453.233	28230.57
453.44	27282.36
453.646	27151.29
453.852	27315.12
454.058	28052.39
454.264	26999.74
454.47	27843.5
454.676	26688.45
454.882	27792.3
455.088	25848.78
455.294	25910.22
455.5	26164.17
455.705	26489.79
455.911	25584.59
456.117	25146.33
456.323	24687.58
456.529	23454.7
456.735	24423.39
456.941	23710.7
457.147	23553.01
457.352	22627.32
457.558	22711.29
457.764	22742.01
457.97	21777.42
458.176	21519.37
458.381	21601.29
458.587	20614.17
458.793	20778.01
458.999	19565.61
459.204	20737.05
459.41	20223.01
459.616	18936.88
459.821	19145.78
460.027	18998.32
460.233	18500.67
460.438	17462.35
460.644	17886.28
460.85	16788.57
461.055	16841.81
461.261	16866.39
461.466	15457.39
461.672	14931.06
461.878	16286.81
462.083	15279.21
462.289	14795.89
462.494	14673.01
462.7	13956.22
462.905	13661.32
463.111	14015.62
463.316	14171.26
463.522	14075.01
463.727	14011.52
463.932	14019.71
464.138	13730.95
464.343	13943.94
464.549	13382.79
464.754	13708.42
464.959	13823.11
465.165	13755.52
465.37	13167.76
465.575	12629.14
465.781	13243.53
465.986	13235.34
466.191	12698.77
466.397	12600.47
466.602	11916.45
466.807	12358.81
467.012	12375.19
467.218	12305.56
467.423	12170.4
467.628	12391.58
467.833	12709.01
468.038	12391.58
468.244	11996.32
