Data from USB4F104151__27__12-27-13-415.txt Node

Date: Fri Mar 14 12:27:13 EDT 2025
User: louis
Spectrometer: USB4F10415
Trigger mode: 4
Integration Time (sec): 2.000000E-2
Scans to average: 1
Electric dark correction enabled: true
Nonlinearity correction enabled: false
Boxcar width: 0
XAxis mode: Wavelengths
Number of Pixels in Spectrum: 3648
>>>>>Begin Spectral Data<<<<<
178.204	-25.09
178.424	-25.09
178.644	-25.09
178.864	-102.91
179.084	-98.81
179.304	50.69
179.524	-25.09
179.744	-6.66
179.964	-8.7
180.184	7.68
180.404	-33.28
180.624	19.97
180.844	1.54
181.064	17.92
181.283	1.54
181.503	-12.8
181.723	-12.8
181.943	-4.61
182.163	34.3
182.383	38.4
182.602	24.06
182.822	71.17
183.042	1.54
183.262	-57.86
183.482	77.31
183.701	-0.51
183.921	42.5
184.141	7.68
184.361	15.87
184.58	9.73
184.8	48.64
185.02	-12.8
185.239	15.87
185.459	3.58
185.679	-20.99
185.898	15.87
186.118	7.68
186.338	42.5
186.557	19.97
186.777	-29.18
186.997	-31.23
187.216	-18.94
187.436	38.4
187.655	17.92
187.875	15.87
188.095	22.02
188.314	83.45
188.534	73.21
188.753	9.73
188.973	-41.47
189.192	60.93
189.412	-47.62
189.631	3.58
189.851	-27.14
190.07	134.65
190.29	-45.57
190.509	5.63
190.729	-20.99
190.948	50.69
191.168	95.74
191.387	46.59
191.607	7.68
191.826	-31.23
192.045	52.74
192.265	-2.56
192.484	-12.8
192.704	5.63
192.923	13.82
193.142	30.21
193.362	89.6
193.581	77.31
193.8	3.58
194.02	105.98
194.239	36.35
194.458	50.69
194.678	11.78
194.897	40.45
195.116	30.21
195.335	32.26
195.555	34.3
195.774	34.3
195.993	46.59
196.212	-6.66
196.432	83.45
196.651	13.82
196.87	5.63
197.089	75.26
197.308	28.16
197.528	105.98
197.747	-4.61
197.966	17.92
198.185	91.65
198.404	52.74
198.623	71.17
198.842	-6.66
199.062	17.92
199.281	9.73
199.5	52.74
199.719	50.69
199.938	38.4
200.157	83.45
200.376	-33.28
200.595	52.74
200.814	44.54
201.033	56.83
201.252	19.97
201.471	56.83
201.69	60.93
201.909	-33.28
202.128	54.78
202.347	50.69
202.566	19.97
202.785	24.06
203.004	75.26
203.223	-6.66
203.442	-14.85
203.661	-10.75
203.879	83.45
204.098	81.41
204.317	-0.51
204.536	-14.85
204.755	54.78
204.974	19.97
205.193	24.06
205.411	44.54
205.63	65.02
205.849	32.26
206.068	11.78
206.287	-8.7
206.505	38.4
206.724	34.3
206.943	54.78
207.162	17.92
207.381	9.73
207.599	-20.99
207.818	81.41
208.037	40.45
208.255	26.11
208.474	60.93
208.693	62.98
208.911	5.63
209.13	42.5
209.349	67.07
209.567	1.54
209.786	58.88
210.005	3.58
210.223	3.58
210.442	15.87
210.661	58.88
210.879	9.73
211.098	24.06
211.316	67.07
211.535	7.68
211.753	54.78
211.972	42.5
212.191	24.06
212.409	34.3
212.628	69.12
212.846	22.02
213.065	5.63
213.283	91.65
213.502	34.3
213.72	34.3
213.938	28.16
214.157	73.21
214.375	67.07
214.594	11.78
214.812	40.45
215.031	-12.8
215.249	7.68
215.467	46.59
215.686	99.84
215.904	36.35
216.122	26.11
216.341	77.31
216.559	1.54
216.778	52.74
216.996	67.07
217.214	97.79
217.432	58.88
217.651	-14.85
217.869	24.06
218.087	50.69
218.306	22.02
218.524	11.78
218.742	38.4
218.96	79.36
219.179	5.63
219.397	19.97
219.615	42.5
219.833	69.12
220.051	7.68
220.27	62.98
220.488	30.21
220.706	22.02
220.924	56.83
221.142	46.59
221.36	38.4
221.578	40.45
221.796	95.74
222.015	52.74
222.233	38.4
222.451	89.6
222.669	34.3
222.887	44.54
223.105	-41.47
223.323	-8.7
223.541	34.3
223.759	-6.66
223.977	44.54
224.195	52.74
224.413	40.45
224.631	60.93
224.849	46.59
225.067	69.12
225.285	-20.99
225.503	9.73
225.721	52.74
225.939	103.93
226.157	22.02
226.375	89.6
226.592	15.87
226.81	-2.56
227.028	97.79
227.246	97.79
227.464	50.69
227.682	44.54
227.9	40.45
228.117	79.36
228.335	7.68
228.553	116.22
228.771	-18.94
228.989	-10.75
229.206	36.35
229.424	42.5
229.642	36.35
229.86	-0.51
230.077	15.87
230.295	36.35
230.513	-23.04
230.731	38.4
230.948	77.31
231.166	34.3
231.384	-35.33
231.601	38.4
231.819	-16.9
232.037	-23.04
232.254	30.21
232.472	28.16
232.689	40.45
232.907	1.54
233.125	42.5
233.342	44.54
233.56	1.54
233.777	48.64
233.995	71.17
234.213	75.26
234.43	15.87
234.648	26.11
234.865	24.06
235.083	32.26
235.3	7.68
235.518	-49.66
235.735	81.41
235.953	48.64
236.17	-12.8
236.388	34.3
236.605	46.59
236.822	38.4
237.04	60.93
237.257	1.54
237.475	-27.14
237.692	73.21
237.909	32.26
238.127	79.36
238.344	52.74
238.562	48.64
238.779	28.16
238.996	-88.57
239.214	87.55
239.431	9.73
239.648	9.73
239.865	54.78
240.083	97.79
240.3	-43.52
240.517	11.78
240.735	7.68
240.952	-2.56
241.169	48.64
241.386	28.16
241.603	95.74
241.821	9.73
242.038	3.58
242.255	-25.09
242.472	42.5
242.689	17.92
242.907	95.74
243.124	97.79
243.341	36.35
243.558	5.63
243.775	-59.9
243.992	3.58
244.209	71.17
244.426	87.55
244.643	17.92
244.86	34.3
245.078	5.63
245.295	52.74
245.512	28.16
245.729	5.63
245.946	105.98
246.163	65.02
246.38	58.88
246.597	-14.85
246.814	36.35
247.031	108.03
247.248	-8.7
247.464	130.56
247.681	36.35
247.898	60.93
248.115	83.45
248.332	32.26
248.549	46.59
248.766	40.45
248.983	7.68
249.2	30.21
249.417	52.74
249.633	85.5
249.85	99.84
250.067	-6.66
250.284	-8.7
250.501	19.97
250.717	58.88
250.934	-16.9
251.151	124.41
251.368	-49.66
251.585	89.6
251.801	69.12
252.018	34.3
252.235	101.89
252.451	17.92
252.668	58.88
252.885	19.97
253.102	15.87
253.318	19.97
253.535	-20.99
253.752	-2.56
253.968	-70.14
254.185	71.17
254.401	36.35
254.618	56.83
254.835	36.35
255.051	120.32
255.268	-23.04
255.484	-16.9
255.701	32.26
255.917	122.37
256.134	7.68
256.351	93.69
256.567	-16.9
256.784	101.89
257	-37.38
257.217	103.93
257.433	50.69
257.65	42.5
257.866	32.26
258.082	62.98
258.299	24.06
258.515	15.87
258.732	40.45
258.948	50.69
259.165	13.82
259.381	36.35
259.597	13.82
259.814	-47.62
260.03	52.74
260.246	13.82
260.463	11.78
260.679	116.22
260.895	-29.18
261.112	-12.8
261.328	56.83
261.544	48.64
261.761	42.5
261.977	28.16
262.193	-61.95
262.409	71.17
262.626	71.17
262.842	56.83
263.058	15.87
263.274	22.02
263.49	36.35
263.707	-16.9
263.923	124.41
264.139	22.02
264.355	5.63
264.571	73.21
264.787	36.35
265.004	17.92
265.22	13.82
265.436	50.69
265.652	5.63
265.868	110.08
266.084	38.4
266.3	60.93
266.516	24.06
266.732	42.5
266.948	83.45
267.164	40.45
267.38	38.4
267.596	24.06
267.812	56.83
268.028	42.5
268.244	79.36
268.46	44.54
268.676	19.97
268.892	54.78
269.108	56.83
269.324	46.59
269.54	17.92
269.756	60.93
269.972	67.07
270.188	99.84
270.403	-8.7
270.619	42.5
270.835	32.26
271.051	87.55
271.267	-41.47
271.483	58.88
271.698	73.21
271.914	71.17
272.13	65.02
272.346	52.74
272.562	38.4
272.777	46.59
272.993	3.58
273.209	77.31
273.425	95.74
273.64	-0.51
273.856	5.63
274.072	62.98
274.287	58.88
274.503	58.88
274.719	-20.99
274.934	67.07
275.15	40.45
275.366	71.17
275.581	44.54
275.797	28.16
276.012	58.88
276.228	15.87
276.444	52.74
276.659	28.16
276.875	13.82
277.09	28.16
277.306	-33.28
277.521	17.92
277.737	79.36
277.952	95.74
278.168	-2.56
278.383	52.74
278.599	-14.85
278.814	69.12
279.03	71.17
279.245	65.02
279.461	42.5
279.676	120.32
279.892	28.16
280.107	50.69
280.322	15.87
280.538	-18.94
280.753	26.11
280.969	28.16
281.184	69.12
281.399	5.63
281.615	-6.66
281.83	40.45
282.045	7.68
282.26	-29.18
282.476	65.02
282.691	87.55
282.906	67.07
283.122	3.58
283.337	11.78
283.552	58.88
283.767	44.54
283.983	-8.7
284.198	22.02
284.413	132.61
284.628	-10.75
284.843	30.21
285.058	67.07
285.274	28.16
285.489	24.06
285.704	128.51
285.919	-43.52
286.134	15.87
286.349	44.54
286.564	26.11
286.779	67.07
286.995	-20.99
287.21	-37.38
287.425	15.87
287.64	19.97
287.855	79.36
288.07	-18.94
288.285	-4.61
288.5	69.12
288.715	87.55
288.93	101.89
289.145	-2.56
289.36	85.5
289.575	19.97
289.79	-6.66
290.004	73.21
290.219	56.83
290.434	48.64
290.649	73.21
290.864	11.78
291.079	36.35
291.294	30.21
291.509	50.69
291.724	71.17
291.938	26.11
292.153	62.98
292.368	22.02
292.583	9.73
292.798	73.21
293.012	60.93
293.227	-20.99
293.442	62.98
293.657	40.45
293.871	85.5
294.086	60.93
294.301	5.63
294.516	44.54
294.73	-8.7
294.945	-2.56
295.16	-27.14
295.374	73.21
295.589	91.65
295.804	46.59
296.018	99.84
296.233	48.64
296.447	11.78
296.662	11.78
296.877	48.64
297.091	52.74
297.306	65.02
297.52	50.69
297.735	34.3
297.949	22.02
298.164	36.35
298.378	42.5
298.593	-6.66
298.807	54.78
299.022	17.92
299.236	56.83
299.451	60.93
299.665	52.74
299.88	-6.66
300.094	32.26
300.309	-20.99
300.523	101.89
300.737	24.06
300.952	19.97
301.166	87.55
301.381	17.92
301.595	-0.51
301.809	40.45
302.024	67.07
302.238	40.45
302.452	69.12
302.667	65.02
302.881	85.5
303.095	-10.75
303.309	69.12
303.524	26.11
303.738	108.03
303.952	-39.42
304.166	15.87
304.381	34.3
304.595	142.85
304.809	-10.75
305.023	34.3
305.237	22.02
305.452	79.36
305.666	79.36
305.88	85.5
306.094	3.58
306.308	77.31
306.522	101.89
306.736	26.11
306.95	54.78
307.164	-14.85
307.379	69.12
307.593	34.3
307.807	34.3
308.021	50.69
308.235	36.35
308.449	22.02
308.663	-31.23
308.877	7.68
309.091	83.45
309.305	77.31
309.519	108.03
309.733	69.12
309.947	-8.7
310.161	42.5
310.374	40.45
310.588	65.02
310.802	22.02
311.016	71.17
311.23	114.17
311.444	36.35
311.658	58.88
311.872	134.65
312.085	101.89
312.299	7.68
312.513	67.07
312.727	28.16
312.941	69.12
313.154	99.84
313.368	73.21
313.582	5.63
313.796	65.02
314.009	126.46
314.223	81.41
314.437	46.59
314.651	-2.56
314.864	11.78
315.078	-0.51
315.292	-16.9
315.505	3.58
315.719	19.97
315.933	54.78
316.146	30.21
316.36	3.58
316.573	-2.56
316.787	-8.7
317.001	85.5
317.214	69.12
317.428	24.06
317.641	38.4
317.855	46.59
318.068	5.63
318.282	67.07
318.495	24.06
318.709	9.73
318.922	73.21
319.136	52.74
319.349	36.35
319.563	79.36
319.776	110.08
319.99	85.5
320.203	79.36
320.417	79.36
320.63	-23.04
320.843	24.06
321.057	85.5
321.27	108.03
321.483	48.64
321.697	58.88
321.91	36.35
322.124	67.07
322.337	-20.99
322.55	95.74
322.763	17.92
322.977	44.54
323.19	-2.56
323.403	34.3
323.617	83.45
323.83	40.45
324.043	7.68
324.256	7.68
324.469	1.54
324.683	26.11
324.896	46.59
325.109	19.97
325.322	28.16
325.535	52.74
325.748	83.45
325.962	60.93
326.175	-6.66
326.388	54.78
326.601	-25.09
326.814	19.97
327.027	30.21
327.24	116.22
327.453	7.68
327.666	36.35
327.879	95.74
328.092	46.59
328.305	-29.18
328.518	28.16
328.731	15.87
328.944	65.02
329.157	-27.14
329.37	120.32
329.583	73.21
329.796	48.64
330.009	5.63
330.222	99.84
330.435	67.07
330.648	89.6
330.861	3.58
331.073	38.4
331.286	62.98
331.499	44.54
331.712	54.78
331.925	58.88
332.138	-2.56
332.35	42.5
332.563	-55.81
332.776	101.89
332.989	36.35
333.202	93.69
333.414	7.68
333.627	65.02
333.84	79.36
334.053	65.02
334.265	81.41
334.478	54.78
334.691	42.5
334.903	34.3
335.116	17.92
335.329	32.26
335.541	58.88
335.754	60.93
335.966	17.92
336.179	83.45
336.392	73.21
336.604	46.59
336.817	-6.66
337.029	91.65
337.242	38.4
337.454	62.98
337.667	50.69
337.88	36.35
338.092	69.12
338.305	34.3
338.517	-64
338.729	48.64
338.942	77.31
339.154	9.73
339.367	24.06
339.579	-0.51
339.792	112.13
340.004	67.07
340.217	73.21
340.429	93.69
340.641	75.26
340.854	79.36
341.066	85.5
341.278	67.07
341.491	28.16
341.703	95.74
341.915	-8.7
342.128	48.64
342.34	5.63
342.552	50.69
342.764	-8.7
342.977	-6.66
343.189	62.98
343.401	36.35
343.613	40.45
343.826	38.4
344.038	40.45
344.25	85.5
344.462	54.78
344.674	65.02
344.886	79.36
345.099	130.56
345.311	75.26
345.523	89.6
345.735	-14.85
345.947	71.17
346.159	24.06
346.371	118.27
346.583	77.31
346.795	48.64
347.007	40.45
347.219	114.17
347.431	62.98
347.643	11.78
347.855	17.92
348.067	93.69
348.279	134.65
348.491	56.83
348.703	38.4
348.915	95.74
349.127	48.64
349.339	60.93
349.551	11.78
349.763	87.55
349.975	13.82
350.187	77.31
350.399	52.74
350.61	65.02
350.822	40.45
351.034	38.4
351.246	56.83
351.458	44.54
351.669	30.21
351.881	77.31
352.093	3.58
352.305	95.74
352.517	46.59
352.728	-16.9
352.94	48.64
353.152	75.26
353.363	71.17
353.575	60.93
353.787	93.69
353.999	75.26
354.21	71.17
354.422	48.64
354.633	85.5
354.845	15.87
355.057	40.45
355.268	130.56
355.48	26.11
355.692	114.17
355.903	71.17
356.115	65.02
356.326	-12.8
356.538	89.6
356.749	83.45
356.961	83.45
357.172	-2.56
357.384	7.68
357.595	60.93
357.807	-4.61
358.018	42.5
358.23	75.26
358.441	144.89
358.653	34.3
358.864	44.54
359.075	97.79
359.287	30.21
359.498	36.35
359.709	60.93
359.921	28.16
360.132	87.55
360.344	34.3
360.555	114.17
360.766	13.82
360.977	22.02
361.189	108.03
361.4	89.6
361.611	83.45
361.823	46.59
362.034	58.88
362.245	-10.75
362.456	108.03
362.667	130.56
362.879	44.54
363.09	52.74
363.301	60.93
363.512	79.36
363.723	32.26
363.935	32.26
364.146	77.31
364.357	65.02
364.568	22.02
364.779	1.54
364.99	83.45
365.201	75.26
365.412	99.84
365.623	-18.94
365.834	67.07
366.045	89.6
366.256	69.12
366.467	114.17
366.678	44.54
366.889	9.73
367.1	38.4
367.311	89.6
367.522	46.59
367.733	62.98
367.944	79.36
368.155	71.17
368.366	9.73
368.577	81.41
368.788	26.11
368.999	116.22
369.209	116.22
369.42	118.27
369.631	120.32
369.842	44.54
370.053	71.17
370.264	-12.8
370.474	114.17
370.685	75.26
370.896	60.93
371.107	-14.85
371.317	112.13
371.528	44.54
371.739	54.78
371.95	54.78
372.16	56.83
372.371	54.78
372.582	19.97
372.792	77.31
373.003	81.41
373.214	44.54
373.424	65.02
373.635	-39.42
373.846	79.36
374.056	11.78
374.267	73.21
374.477	-0.51
374.688	112.13
374.898	101.89
375.109	38.4
375.319	54.78
375.53	93.69
375.74	116.22
375.951	52.74
376.161	58.88
376.372	173.57
376.582	44.54
376.793	110.08
377.003	30.21
377.214	140.8
377.424	46.59
377.635	105.98
377.845	126.46
378.055	81.41
378.266	89.6
378.476	32.26
378.686	97.79
378.897	114.17
379.107	7.68
379.317	56.83
379.528	40.45
379.738	87.55
379.948	65.02
380.158	124.41
380.369	112.13
380.579	36.35
380.789	26.11
380.999	5.63
381.21	142.85
381.42	148.99
381.63	30.21
381.84	101.89
382.05	83.45
382.261	83.45
382.471	81.41
382.681	60.93
382.891	40.45
383.101	95.74
383.311	89.6
383.521	50.69
383.731	124.41
383.941	108.03
384.151	73.21
384.361	48.64
384.571	71.17
384.781	91.65
384.991	126.46
385.201	118.27
385.411	42.5
385.621	62.98
385.831	42.5
386.041	58.88
386.251	81.41
386.461	48.64
386.671	44.54
386.881	60.93
387.091	46.59
387.301	120.32
387.511	-4.61
387.72	19.97
387.93	99.84
388.14	19.97
388.35	67.07
388.56	34.3
388.769	95.74
388.979	79.36
389.189	22.02
389.399	30.21
389.609	65.02
389.818	126.46
390.028	75.26
390.238	1.54
390.447	52.74
390.657	56.83
390.867	95.74
391.076	5.63
391.286	50.69
391.496	75.26
391.705	-31.23
391.915	83.45
392.125	110.08
392.334	65.02
392.544	81.41
392.753	34.3
392.963	56.83
393.172	-12.8
393.382	110.08
393.591	118.27
393.801	62.98
394.01	118.27
394.22	144.89
394.429	99.84
394.639	93.69
394.848	112.13
395.058	122.37
395.267	87.55
395.477	52.74
395.686	124.41
395.895	134.65
396.105	36.35
396.314	77.31
396.524	126.46
396.733	126.46
396.942	134.65
397.152	99.84
397.361	177.66
397.57	71.17
397.78	132.61
397.989	128.51
398.198	200.19
398.407	124.41
398.617	132.61
398.826	73.21
399.035	91.65
399.244	155.13
399.453	101.89
399.663	65.02
399.872	138.75
400.081	85.5
400.29	173.57
400.499	116.22
400.708	118.27
400.917	140.8
401.127	97.79
401.336	99.84
401.545	132.61
401.754	175.61
401.963	130.56
402.172	161.28
402.381	93.69
402.59	153.09
402.799	132.61
403.008	60.93
403.217	192
403.426	140.8
403.635	144.89
403.844	175.61
404.053	124.41
404.262	148.99
404.471	216.57
404.68	175.61
404.888	148.99
405.097	144.89
405.306	198.14
405.515	222.72
405.724	280.06
405.933	222.72
406.142	187.9
406.35	230.91
406.559	214.52
406.768	261.63
406.977	259.58
407.185	243.2
407.394	218.62
407.603	175.61
407.812	200.19
408.02	300.54
408.229	323.07
408.438	263.68
408.646	312.83
408.855	318.97
409.064	318.97
409.272	325.12
409.481	368.12
409.69	429.56
409.898	296.44
410.107	333.31
410.315	355.83
410.524	335.35
410.733	325.12
410.941	413.18
411.15	398.84
411.358	402.94
411.567	499.19
411.775	435.71
411.984	413.18
412.192	513.53
412.401	505.34
412.609	640.5
412.818	591.35
413.026	574.97
413.234	683.51
413.443	583.16
413.651	595.45
413.86	634.36
414.068	632.31
414.276	812.53
414.485	646.65
414.693	720.37
414.901	736.76
415.11	798.2
415.318	833.01
415.526	818.68
415.734	882.16
415.943	859.63
416.151	986.61
416.359	980.47
416.567	1005.04
416.776	1123.82
416.984	1179.12
417.192	1076.72
417.4	1119.73
417.608	1140.21
417.817	1240.56
418.025	1230.32
418.233	1279.47
418.441	1347.05
418.649	1394.15
418.857	1398.25
419.065	1496.55
419.273	1494.51
419.481	1531.37
419.689	1684.97
419.897	1748.45
420.105	1820.13
420.313	1783.27
420.521	1910.24
420.729	1854.95
420.937	1981.92
421.145	2006.5
421.353	2125.28
421.561	2223.58
421.769	2223.58
421.977	2325.98
422.185	2213.34
422.393	2399.71
422.601	2594.26
422.809	2655.7
423.017	2565.59
423.224	2733.53
423.432	2762.2
423.64	2797.01
423.848	3171.79
424.056	3020.24
424.263	3360.2
424.471	3313.1
424.679	3358.16
424.887	3450.32
425.094	3745.22
425.302	3745.22
425.51	3786.18
425.718	3947.97
425.925	4054.47
426.133	4171.2
426.341	4310.46
426.548	4437.44
426.756	4613.56
426.964	4582.84
427.171	4887.99
427.379	5121.46
427.586	5078.45
427.794	5139.89
428.001	5610.92
428.209	5758.38
428.417	5649.83
428.624	6059.43
428.832	6102.43
429.039	5963.17
429.247	6127.01
429.454	6477.21
429.662	6993.3
429.869	6507.93
430.076	6993.3
430.284	6778.26
430.491	7181.71
430.699	7525.77
430.906	7718.28
431.114	7632.27
431.321	7884.17
431.528	8181.12
431.736	8705.4
431.943	8824.19
432.15	8748.41
432.358	8859
432.565	9194.87
432.772	9239.92
432.979	9835.88
433.187	9973.1
433.394	9930.09
433.601	10595.68
433.808	10521.95
434.016	10501.47
434.223	11183.45
434.43	11765.07
434.637	11439.44
434.844	12166.47
435.052	12647.74
435.259	12367.17
435.466	12522.82
435.673	12528.96
435.88	13534.51
436.087	13888.81
436.294	13931.82
436.501	13778.22
436.708	14140.71
436.915	14437.67
437.122	15297.81
437.329	14945.56
437.537	15762.7
437.743	15748.37
437.95	15598.87
438.157	16545.03
438.364	17114.36
438.571	16905.47
438.778	17331.45
438.985	18539.75
439.192	18050.28
439.399	18543.85
439.606	18060.52
439.813	19170.52
440.02	20425.93
440.227	19606.74
440.433	19897.55
440.64	20780.23
440.847	20479.18
441.054	20915.39
441.261	22256.81
441.467	22215.85
441.674	22293.68
441.881	23379.1
442.088	23405.72
442.294	22977.7
442.501	23757.97
442.708	24130.7
442.914	25246.85
443.121	25805.94
443.328	25453.69
443.534	27225.18
443.741	26516.59
443.948	25840.76
444.154	28314.7
444.361	28374.1
444.568	28036.18
444.774	28122.19
444.981	28554.32
445.187	29099.08
445.394	30723.12
445.6	29938.74
445.807	33281.03
446.013	31544.35
446.22	32295.96
446.426	33598.46
446.633	33727.49
446.839	34798.57
447.046	33391.62
447.252	35070.95
447.459	35476.45
447.665	35214.31
447.871	36930.51
448.078	38433.72
448.284	36733.9
448.491	37516.23
448.697	38962.09
448.903	39490.47
449.11	39826.34
449.316	39109.55
449.522	40010.65
449.728	40981.39
449.935	41411.46
450.141	41061.26
450.347	41972.61
450.553	41059.21
450.76	41372.55
450.966	42718.07
451.172	42296.19
451.378	43471.72
451.584	42591.09
451.791	43617.13
451.997	43367.27
452.203	44036.96
452.409	44141.41
452.615	44063.58
452.821	42173.31
453.027	42034.05
453.233	44327.77
453.44	42423.16
453.646	42959.73
453.852	43012.98
454.058	43684.71
454.264	42460.02
454.47	43359.08
454.676	42208.12
454.882	43928.42
455.088	40207.26
455.294	40244.12
455.5	41264.01
455.705	41913.22
455.911	39865.25
456.117	39168.94
456.323	38996.91
456.529	36883.41
456.735	38343.61
456.941	37290.95
457.147	36547.54
457.352	35539.94
457.558	35509.22
457.764	34972.65
457.97	34421.75
458.176	33881.08
458.381	33707.01
458.587	32525.33
458.793	32146.45
458.999	31022.12
459.204	33057.8
459.41	32191.51
459.616	29762.62
459.821	30106.68
460.027	29699.13
460.233	29291.59
460.438	27665.5
460.644	28372.05
460.85	26664.04
461.055	26287.21
461.261	26416.24
461.466	24153.23
461.672	23415.96
461.878	25433.21
462.083	23473.31
462.289	23288.99
462.494	22764.71
462.7	21742.77
462.905	21683.38
463.111	22056.11
463.316	22158.51
463.522	21261.5
463.727	21714.1
463.932	21890.23
464.138	21320.89
464.343	21470.39
464.549	20921.54
464.754	21462.2
464.959	21355.71
465.165	21226.68
465.37	20331.72
465.575	19893.46
465.781	20634.82
465.986	20884.67
466.191	20180.17
466.397	19768.53
466.602	18818.27
466.807	19621.08
467.012	19148
467.218	19236.06
467.423	19074.27
467.628	19299.55
467.833	20047.05
468.038	19148
