Data from USB4F104151__45__12-27-25-334.txt Node

Date: Fri Mar 14 12:27:25 EDT 2025
User: louis
Spectrometer: USB4F10415
Trigger mode: 4
Integration Time (sec): 2.000000E-2
Scans to average: 1
Electric dark correction enabled: true
Nonlinearity correction enabled: false
Boxcar width: 0
XAxis mode: Wavelengths
Number of Pixels in Spectrum: 3648
>>>>>Begin Spectral Data<<<<<
178.204	-83.97
178.424	-83.97
178.644	-83.97
178.864	-124.93
179.084	-116.73
179.304	-20.48
179.524	20.48
179.744	6.14
179.964	63.49
180.184	4.1
180.404	10.24
180.624	43.01
180.844	-65.53
181.064	-34.82
181.283	22.53
181.503	-53.25
181.723	4.1
181.943	-22.53
182.163	102.4
182.383	8.19
182.602	71.68
182.822	18.43
183.042	34.82
183.262	-36.86
183.482	38.91
183.701	30.72
183.921	4.1
184.141	20.48
184.361	96.25
184.58	55.3
184.8	53.25
185.02	14.34
185.239	77.82
185.459	32.77
185.679	135.17
185.898	-57.34
186.118	10.24
186.338	36.86
186.557	47.1
186.777	-14.34
186.997	18.43
187.216	28.67
187.436	67.58
187.655	106.49
187.875	34.82
188.095	20.48
188.314	40.96
188.534	65.54
188.753	18.43
188.973	45.06
189.192	26.62
189.412	-2.05
189.631	10.24
189.851	47.1
190.07	53.25
190.29	4.1
190.509	38.91
190.729	-59.39
190.948	71.68
191.168	159.74
191.387	63.49
191.607	-22.53
191.826	14.34
192.045	28.67
192.265	63.49
192.484	-34.82
192.704	-34.82
192.923	8.19
193.142	73.73
193.362	61.44
193.581	73.73
193.8	-24.58
194.02	-16.38
194.239	-10.24
194.458	22.53
194.678	14.34
194.897	40.96
195.116	12.29
195.335	4.1
195.555	8.19
195.774	6.14
195.993	36.86
196.212	-61.44
196.432	-32.77
196.651	-45.06
196.87	75.77
197.089	57.34
197.308	114.69
197.528	40.96
197.747	-20.48
197.966	28.67
198.185	2.05
198.404	51.2
198.623	-4.1
198.842	-16.38
199.062	110.59
199.281	49.15
199.5	32.77
199.719	36.86
199.938	2.05
200.157	51.2
200.376	55.3
200.595	88.06
200.814	8.19
201.033	67.58
201.252	32.77
201.471	81.92
201.69	-18.43
201.909	63.49
202.128	55.3
202.347	-2.05
202.566	63.49
202.785	-75.77
203.004	-43.01
203.223	112.64
203.442	4.1
203.661	57.34
203.879	38.91
204.098	14.34
204.317	75.77
204.536	83.97
204.755	30.72
204.974	14.34
205.193	47.1
205.411	94.21
205.63	20.48
205.849	77.82
206.068	75.77
206.287	63.49
206.505	-24.58
206.724	59.39
206.943	24.58
207.162	38.91
207.381	38.91
207.599	59.39
207.818	-20.48
208.037	40.96
208.255	47.1
208.474	45.06
208.693	96.25
208.911	67.58
209.13	81.92
209.349	57.34
209.567	-14.34
209.786	22.53
210.005	-16.38
210.223	-6.14
210.442	16.38
210.661	79.87
210.879	71.68
211.098	45.06
211.316	69.63
211.535	108.54
211.753	22.53
211.972	51.2
212.191	6.14
212.409	30.72
212.628	73.73
212.846	-8.19
213.065	16.38
213.283	63.49
213.502	30.72
213.72	116.73
213.938	30.72
214.157	24.58
214.375	20.48
214.594	16.38
214.812	-49.15
215.031	83.97
215.249	34.82
215.467	-43.01
215.686	-22.53
215.904	57.34
216.122	28.67
216.341	14.34
216.559	8.19
216.778	149.5
216.996	36.86
217.214	24.58
217.432	77.82
217.651	-8.19
217.869	40.96
218.087	16.38
218.306	22.53
218.524	12.29
218.742	79.87
218.96	34.82
219.179	2.05
219.397	22.53
219.615	28.67
219.833	32.77
220.051	-22.53
220.27	135.17
220.488	73.73
220.706	65.54
220.924	55.3
221.142	22.53
221.36	-16.38
221.578	-30.72
221.796	-34.82
222.015	6.14
222.233	61.44
222.451	20.48
222.669	65.54
222.887	32.77
223.105	-34.82
223.323	36.86
223.541	30.72
223.759	40.96
223.977	0
224.195	55.3
224.413	73.73
224.631	12.29
224.849	18.43
225.067	106.49
225.285	53.25
225.503	73.73
225.721	2.05
225.939	20.48
226.157	53.25
226.375	151.55
226.592	49.15
226.81	-4.1
227.028	36.86
227.246	61.44
227.464	53.25
227.682	-22.53
227.9	4.1
228.117	63.49
228.335	-12.29
228.553	18.43
228.771	-24.58
228.989	90.11
229.206	43.01
229.424	0
229.642	43.01
229.86	32.77
230.077	32.77
230.295	24.58
230.513	32.77
230.731	45.06
230.948	81.92
231.166	112.64
231.384	45.06
231.601	38.91
231.819	57.34
232.037	51.2
232.254	75.77
232.472	-2.05
232.689	24.58
232.907	45.06
233.125	49.15
233.342	45.06
233.56	-55.3
233.777	43.01
233.995	57.34
234.213	47.1
234.43	20.48
234.648	-10.24
234.865	47.1
235.083	63.49
235.3	69.63
235.518	-6.14
235.735	0
235.953	16.38
236.17	-45.06
236.388	0
236.605	-2.05
236.822	104.45
237.04	45.06
237.257	-10.24
237.475	-34.82
237.692	63.49
237.909	61.44
238.127	8.19
238.344	-10.24
238.562	51.2
238.779	-8.19
238.996	14.34
239.214	79.87
239.431	106.49
239.648	0
239.865	94.21
240.083	24.58
240.3	73.73
240.517	92.16
240.735	69.63
240.952	96.25
241.169	57.34
241.386	20.48
241.603	43.01
241.821	-26.62
242.038	69.63
242.255	-12.29
242.472	92.16
242.689	34.82
242.907	38.91
243.124	-14.34
243.341	43.01
243.558	53.25
243.775	22.53
243.992	36.86
244.209	-43.01
244.426	71.68
244.643	-12.29
244.86	53.25
245.078	22.53
245.295	24.58
245.512	92.16
245.729	28.67
245.946	73.73
246.163	20.48
246.38	32.77
246.597	49.15
246.814	22.53
247.031	49.15
247.248	22.53
247.464	49.15
247.681	-20.48
247.898	18.43
248.115	83.97
248.332	59.39
248.549	104.45
248.766	34.82
248.983	24.58
249.2	-63.49
249.417	90.11
249.633	49.15
249.85	-10.24
250.067	20.48
250.284	34.82
250.501	57.34
250.717	-10.24
250.934	6.14
251.151	8.19
251.368	14.34
251.585	16.38
251.801	36.86
252.018	-8.19
252.235	12.29
252.451	40.96
252.668	88.06
252.885	47.1
253.102	12.29
253.318	79.87
253.535	16.38
253.752	12.29
253.968	16.38
254.185	28.67
254.401	10.24
254.618	90.11
254.835	53.25
255.051	77.82
255.268	-36.86
255.484	-43.01
255.701	-10.24
255.917	79.87
256.134	71.68
256.351	22.53
256.567	59.39
256.784	124.93
257	-40.96
257.217	18.43
257.433	49.15
257.65	96.25
257.866	88.06
258.082	34.82
258.299	-36.86
258.515	143.36
258.732	73.73
258.948	51.2
259.165	-6.14
259.381	47.1
259.597	90.11
259.814	38.91
260.03	43.01
260.246	-12.29
260.463	32.77
260.679	6.14
260.895	-4.1
261.112	53.25
261.328	30.72
261.544	8.19
261.761	43.01
261.977	45.06
262.193	-2.05
262.409	32.77
262.626	-30.72
262.842	45.06
263.058	36.86
263.274	14.34
263.49	18.43
263.707	6.14
263.923	-38.91
264.139	16.38
264.355	51.2
264.571	38.91
264.787	-14.34
265.004	182.27
265.22	57.34
265.436	43.01
265.652	12.29
265.868	32.77
266.084	10.24
266.3	36.86
266.516	-32.77
266.732	57.34
266.948	-4.1
267.164	96.25
267.38	71.68
267.596	61.44
267.812	81.92
268.028	49.15
268.244	36.86
268.46	14.34
268.676	14.34
268.892	24.58
269.108	18.43
269.324	-16.38
269.54	6.14
269.756	38.91
269.972	43.01
270.188	65.54
270.403	30.72
270.619	51.2
270.835	-2.05
271.051	71.68
271.267	34.82
271.483	30.72
271.698	14.34
271.914	26.62
272.13	69.63
272.346	71.68
272.562	92.16
272.777	32.77
272.993	63.49
273.209	63.49
273.425	-36.86
273.64	-12.29
273.856	51.2
274.072	30.72
274.287	32.77
274.503	63.49
274.719	98.3
274.934	135.17
275.15	-51.2
275.366	77.82
275.581	55.3
275.797	18.43
276.012	10.24
276.228	-10.24
276.444	0
276.659	92.16
276.875	-6.14
277.09	32.77
277.306	8.19
277.521	24.58
277.737	59.39
277.952	129.02
278.168	12.29
278.383	83.97
278.599	59.39
278.814	75.77
279.03	-2.05
279.245	71.68
279.461	26.62
279.676	53.25
279.892	4.1
280.107	98.3
280.322	-4.1
280.538	65.54
280.753	20.48
280.969	83.97
281.184	12.29
281.399	57.34
281.615	-6.14
281.83	129.02
282.045	38.91
282.26	32.77
282.476	6.14
282.691	90.11
282.906	-45.06
283.122	51.2
283.337	141.31
283.552	71.68
283.767	77.82
283.983	104.45
284.198	14.34
284.413	122.88
284.628	83.97
284.843	28.67
285.058	51.2
285.274	57.34
285.489	73.73
285.704	120.83
285.919	-12.29
286.134	24.58
286.349	49.15
286.564	10.24
286.779	45.06
286.995	106.49
287.21	4.1
287.425	73.73
287.64	18.43
287.855	26.62
288.07	38.91
288.285	57.34
288.5	83.97
288.715	79.87
288.93	73.73
289.145	-4.1
289.36	43.01
289.575	0
289.79	61.44
290.004	36.86
290.219	86.01
290.434	-2.05
290.649	22.53
290.864	47.1
291.079	12.29
291.294	61.44
291.509	38.91
291.724	51.2
291.938	26.62
292.153	34.82
292.368	-6.14
292.583	28.67
292.798	59.39
293.012	59.39
293.227	57.34
293.442	2.05
293.657	43.01
293.871	96.25
294.086	40.96
294.301	169.98
294.516	77.82
294.73	69.63
294.945	10.24
295.16	47.1
295.374	2.05
295.589	77.82
295.804	77.82
296.018	65.54
296.233	77.82
296.447	100.35
296.662	2.05
296.877	79.87
297.091	28.67
297.306	49.15
297.52	-2.05
297.735	38.91
297.949	40.96
298.164	2.05
298.378	-14.34
298.593	10.24
298.807	45.06
299.022	10.24
299.236	32.77
299.451	96.25
299.665	-4.1
299.88	55.3
300.094	36.86
300.309	12.29
300.523	10.24
300.737	90.11
300.952	40.96
301.166	4.1
301.381	51.2
301.595	10.24
301.809	38.91
302.024	6.14
302.238	4.1
302.452	94.21
302.667	12.29
302.881	40.96
303.095	8.19
303.309	114.69
303.524	8.19
303.738	28.67
303.952	8.19
304.166	83.97
304.381	73.73
304.595	79.87
304.809	30.72
305.023	26.62
305.237	55.3
305.452	75.77
305.666	36.86
305.88	36.86
306.094	55.3
306.308	26.62
306.522	30.72
306.736	34.82
306.95	24.58
307.164	8.19
307.379	45.06
307.593	57.34
307.807	65.54
308.021	172.03
308.235	90.11
308.449	32.77
308.663	45.06
308.877	63.49
309.091	-6.14
309.305	79.87
309.519	38.91
309.733	63.49
309.947	43.01
310.161	124.93
310.374	67.58
310.588	79.87
310.802	83.97
311.016	8.19
311.23	12.29
311.444	-4.1
311.658	2.05
311.872	30.72
312.085	79.87
312.299	77.82
312.513	-2.05
312.727	94.21
312.941	4.1
313.154	47.1
313.368	36.86
313.582	77.82
313.796	45.06
314.009	-4.1
314.223	34.82
314.437	69.63
314.651	139.26
314.864	30.72
315.078	12.29
315.292	10.24
315.505	71.68
315.719	36.86
315.933	2.05
316.146	38.91
316.36	47.1
316.573	14.34
316.787	22.53
317.001	18.43
317.214	67.58
317.428	40.96
317.641	28.67
317.855	94.21
318.068	14.34
318.282	81.92
318.495	45.06
318.709	12.29
318.922	8.19
319.136	57.34
319.349	47.1
319.563	22.53
319.776	51.2
319.99	38.91
320.203	63.49
320.417	6.14
320.63	57.34
320.843	131.07
321.057	26.62
321.27	26.62
321.483	6.14
321.697	86.01
321.91	28.67
322.124	63.49
322.337	118.78
322.55	22.53
322.763	73.73
322.977	4.1
323.19	28.67
323.403	67.58
323.617	143.36
323.83	-26.62
324.043	16.38
324.256	65.54
324.469	126.97
324.683	10.24
324.896	45.06
325.109	-34.82
325.322	16.38
325.535	75.77
325.748	40.96
325.962	6.14
326.175	53.25
326.388	12.29
326.601	-10.24
326.814	12.29
327.027	45.06
327.24	36.86
327.453	38.91
327.666	135.17
327.879	90.11
328.092	45.06
328.305	67.58
328.518	-36.86
328.731	22.53
328.944	10.24
329.157	2.05
329.37	-8.19
329.583	10.24
329.796	69.63
330.009	38.91
330.222	-6.14
330.435	83.97
330.648	38.91
330.861	30.72
331.073	45.06
331.286	-2.05
331.499	79.87
331.712	40.96
331.925	47.1
332.138	-4.1
332.35	79.87
332.563	16.38
332.776	12.29
332.989	22.53
333.202	24.58
333.414	55.3
333.627	40.96
333.84	55.3
334.053	77.82
334.265	65.54
334.478	61.44
334.691	6.14
334.903	34.82
335.116	67.58
335.329	47.1
335.541	90.11
335.754	118.78
335.966	18.43
336.179	0
336.392	47.1
336.604	79.87
336.817	77.82
337.029	49.15
337.242	53.25
337.454	67.58
337.667	-6.14
337.88	12.29
338.092	73.73
338.305	118.78
338.517	-4.1
338.729	124.93
338.942	118.78
339.154	-16.38
339.367	-10.24
339.579	79.87
339.792	45.06
340.004	65.54
340.217	43.01
340.429	67.58
340.641	12.29
340.854	45.06
341.066	-20.48
341.278	61.44
341.491	116.73
341.703	2.05
341.915	24.58
342.128	92.16
342.34	36.86
342.552	79.87
342.764	-10.24
342.977	122.88
343.189	43.01
343.401	63.49
343.613	57.34
343.826	83.97
344.038	-30.72
344.25	77.82
344.462	-4.1
344.674	24.58
344.886	24.58
345.099	145.41
345.311	57.34
345.523	20.48
345.735	55.3
345.947	32.77
346.159	57.34
346.371	100.35
346.583	20.48
346.795	57.34
347.007	92.16
347.219	69.63
347.431	49.15
347.643	96.25
347.855	34.82
348.067	53.25
348.279	67.58
348.491	71.68
348.703	88.06
348.915	30.72
349.127	26.62
349.339	96.25
349.551	26.62
349.763	22.53
349.975	34.82
350.187	88.06
350.399	26.62
350.61	104.45
350.822	77.82
351.034	6.14
351.246	90.11
351.458	55.3
351.669	57.34
351.881	-2.05
352.093	108.54
352.305	65.54
352.517	0
352.728	77.82
352.94	83.97
353.152	110.59
353.363	67.58
353.575	63.49
353.787	129.02
353.999	4.1
354.21	96.25
354.422	-8.19
354.633	-49.15
354.845	40.96
355.057	106.49
355.268	32.77
355.48	28.67
355.692	34.82
355.903	86.01
356.115	2.05
356.326	0
356.538	8.19
356.749	43.01
356.961	110.59
357.172	98.3
357.384	81.92
357.595	67.58
357.807	4.1
358.018	36.86
358.23	-26.62
358.441	98.3
358.653	38.91
358.864	43.01
359.075	75.77
359.287	34.82
359.498	122.88
359.709	49.15
359.921	43.01
360.132	55.3
360.344	32.77
360.555	51.2
360.766	45.06
360.977	10.24
361.189	110.59
361.4	-55.3
361.611	36.86
361.823	77.82
362.034	34.82
362.245	47.1
362.456	75.77
362.667	49.15
362.879	59.39
363.09	79.87
363.301	96.25
363.512	2.05
363.723	2.05
363.935	61.44
364.146	53.25
364.357	26.62
364.568	86.01
364.779	2.05
364.99	77.82
365.201	53.25
365.412	63.49
365.623	-10.24
365.834	126.97
366.045	-4.1
366.256	147.45
366.467	16.38
366.678	36.86
366.889	36.86
367.1	47.1
367.311	2.05
367.522	-30.72
367.733	63.49
367.944	-14.34
368.155	63.49
368.366	122.88
368.577	4.1
368.788	106.49
368.999	32.77
369.209	53.25
369.42	114.69
369.631	102.4
369.842	30.72
370.053	40.96
370.264	106.49
370.474	30.72
370.685	83.97
370.896	22.53
371.107	-40.96
371.317	40.96
371.528	10.24
371.739	24.58
371.95	67.58
372.16	6.14
372.371	8.19
372.582	26.62
372.792	67.58
373.003	108.54
373.214	102.4
373.424	57.34
373.635	47.1
373.846	100.35
374.056	18.43
374.267	71.68
374.477	32.77
374.688	67.58
374.898	88.06
375.109	114.69
375.319	30.72
375.53	40.96
375.74	69.63
375.951	77.82
376.161	59.39
376.372	65.54
376.582	36.86
376.793	65.54
377.003	18.43
377.214	96.25
377.424	14.34
377.635	79.87
377.845	57.34
378.055	118.78
378.266	65.54
378.476	73.73
378.686	43.01
378.897	-10.24
379.107	92.16
379.317	8.19
379.528	43.01
379.738	49.15
379.948	4.1
380.158	22.53
380.369	106.49
380.579	90.11
380.789	34.82
380.999	47.1
381.21	20.48
381.42	63.49
381.63	28.67
381.84	51.2
382.05	77.82
382.261	73.73
382.471	43.01
382.681	65.54
382.891	126.97
383.101	38.91
383.311	63.49
383.521	65.54
383.731	38.91
383.941	30.72
384.151	2.05
384.361	16.38
384.571	135.17
384.781	110.59
384.991	49.15
385.201	131.07
385.411	86.01
385.621	36.86
385.831	67.58
386.041	-12.29
386.251	61.44
386.461	88.06
386.671	73.73
386.881	59.39
387.091	10.24
387.301	71.68
387.511	26.62
387.72	57.34
387.93	22.53
388.14	81.92
388.35	43.01
388.56	32.77
388.769	141.31
388.979	75.77
389.189	26.62
389.399	94.21
389.609	102.4
389.818	18.43
390.028	90.11
390.238	108.54
390.447	8.19
390.657	73.73
390.867	49.15
391.076	51.2
391.286	94.21
391.496	112.64
391.705	-53.25
391.915	112.64
392.125	30.72
392.334	38.91
392.544	114.69
392.753	169.98
392.963	65.54
393.172	75.77
393.382	100.35
393.591	153.6
393.801	167.93
394.01	137.21
394.22	53.25
394.429	96.25
394.639	102.4
394.848	43.01
395.058	63.49
395.267	79.87
395.477	92.16
395.686	104.45
395.895	77.82
396.105	141.31
396.314	38.91
396.524	67.58
396.733	114.69
396.942	83.97
397.152	96.25
397.361	161.79
397.57	114.69
397.78	122.88
397.989	108.54
398.198	186.37
398.407	65.54
398.617	92.16
398.826	73.73
399.035	90.11
399.244	137.21
399.453	57.34
399.663	137.21
399.872	110.59
400.081	43.01
400.29	77.82
400.499	96.25
400.708	126.97
400.917	96.25
401.127	126.97
401.336	143.36
401.545	190.46
401.754	38.91
401.963	145.41
402.172	100.35
402.381	155.65
402.59	110.59
402.799	129.02
403.008	88.06
403.217	143.36
403.426	26.62
403.635	86.01
403.844	200.7
404.053	129.02
404.262	114.69
404.471	180.22
404.68	98.3
404.888	129.02
405.097	112.64
405.306	184.32
405.515	147.45
405.724	159.74
405.933	169.98
406.142	196.61
406.35	124.93
406.559	215.04
406.768	159.74
406.977	235.52
407.185	165.89
407.394	239.61
407.603	194.56
407.812	141.31
408.02	182.27
408.229	200.7
408.438	182.27
408.646	352.25
408.855	167.93
409.064	223.23
409.272	188.41
409.481	294.91
409.69	290.81
409.898	268.28
410.107	278.52
410.315	335.87
410.524	321.53
410.733	348.15
410.941	342.01
411.15	325.63
411.358	325.63
411.567	428.03
411.775	313.34
411.984	331.77
412.192	415.74
412.401	430.07
412.609	421.88
412.818	419.83
413.026	493.56
413.234	442.36
413.443	434.17
413.651	483.32
413.86	464.89
414.068	563.19
414.276	604.15
414.485	587.77
414.693	632.82
414.901	657.4
415.11	618.49
415.318	632.82
415.526	626.68
415.734	686.07
415.943	786.42
416.151	864.24
416.359	763.89
416.567	780.28
416.776	786.42
416.984	880.63
417.192	929.78
417.4	851.95
417.608	843.76
417.817	919.54
418.025	964.59
418.233	1003.5
418.441	960.5
418.649	1062.9
418.857	1146.86
419.065	1218.54
419.273	1116.14
419.481	1241.07
419.689	1378.28
419.897	1423.34
420.105	1390.57
420.313	1458.15
420.521	1462.25
420.729	1550.31
420.937	1632.23
421.145	1626.09
421.353	1650.66
421.561	1877.99
421.769	1794.02
421.977	1894.37
422.185	1806.31
422.393	1912.8
422.601	2052.06
422.809	2009.06
423.017	2027.49
423.224	2154.46
423.432	2242.53
423.64	2357.21
423.848	2506.71
424.056	2328.54
424.263	2496.47
424.471	2475.99
424.679	2549.72
424.887	2789.33
425.094	2912.21
425.302	2848.72
425.51	2975.7
425.718	3160.02
425.925	3024.85
426.133	3219.41
426.341	3547.08
426.548	3616.71
426.756	3776.45
426.964	3727.3
427.171	3858.37
427.379	3852.23
427.586	3930.05
427.794	4200.38
428.001	4294.59
428.209	4487.1
428.417	4501.44
428.624	4825.01
428.832	4730.81
429.039	4812.73
429.247	4769.72
429.454	5183.41
429.662	5369.77
429.869	5169.07
430.076	5570.47
430.284	5377.97
430.491	5668.78
430.699	5842.85
430.906	6004.64
431.114	6037.41
431.321	6240.16
431.528	6240.16
431.736	6770.58
431.943	7098.26
432.15	6946.71
432.358	6991.77
432.565	7395.22
432.772	7309.2
432.979	7743.37
433.187	7733.13
433.394	7901.06
433.601	8351.62
433.808	8298.37
434.016	8570.75
434.223	8679.29
434.43	9265.01
434.637	9148.28
434.844	9787.24
435.052	9897.83
435.259	9815.91
435.466	9932.65
435.673	9693.04
435.88	10532.7
436.087	10899.29
436.294	11046.74
436.501	10604.38
436.708	11059.03
436.915	11415.38
437.122	11968.33
437.329	11917.13
437.537	12150.6
437.743	12171.08
437.95	12365.64
438.157	13014.84
438.364	13389.62
438.571	13551.41
438.778	13455.15
438.985	14679.84
439.192	14081.83
439.399	14559.01
439.606	14274.34
439.813	14901.02
440.02	15707.92
440.227	15628.05
440.433	15591.19
440.64	16275.21
440.847	15965.96
441.054	16215.82
441.261	17356.54
441.467	17245.94
441.674	17542.9
441.881	18138.86
442.088	18020.08
442.294	17907.44
442.501	18433.77
442.708	18958.05
442.914	19703.51
443.121	20475.59
443.328	19812.05
443.534	21556.92
443.741	20489.93
443.948	20092.62
444.154	21728.95
444.361	21821.11
444.568	21802.68
444.774	21913.27
444.981	22507.18
445.187	22570.66
445.394	23885.46
445.6	23512.73
445.807	25587.32
446.013	24264.33
446.22	25288.32
446.426	26156.66
446.633	26166.9
446.839	27094.63
447.046	25988.72
447.252	27661.91
447.459	27649.63
447.665	27285.09
447.871	28939.85
448.078	29957.69
448.284	28603.98
448.491	29673.02
448.697	30674.48
448.903	30858.79
449.11	31034.92
449.316	30619.18
449.522	30940.71
449.728	31979.03
449.935	32411.15
450.141	31970.84
450.347	33043.98
450.553	32298.52
450.76	32642.57
450.966	33588.74
451.172	32994.82
451.378	33742.33
451.584	33379.84
451.791	33900.03
451.997	33920.51
452.203	34389.49
452.409	34647.54
452.615	34616.82
452.821	33351.17
453.027	32470.54
453.233	34743.79
453.44	33207.81
453.646	33535.49
453.852	33945.08
454.058	33936.89
454.264	33242.63
454.47	34045.43
454.676	33117.7
454.882	34375.16
455.088	31292.96
455.294	31770.14
455.5	31915.54
455.705	32558.61
455.911	31370.79
456.117	30846.51
456.323	30453.3
456.529	28560.97
456.735	30008.89
456.941	29103.68
457.147	28628.56
457.352	28089.94
457.558	27420.25
457.764	27835.99
457.97	26836.58
458.176	26615.4
458.381	26642.03
458.587	25089.67
458.793	25460.35
458.999	23879.32
459.204	25370.24
459.41	25069.19
459.616	23170.72
459.821	23326.36
460.027	23434.91
460.233	22691.49
460.438	21395.13
460.644	21962.42
460.85	20698.82
461.055	20375.24
461.261	20438.73
461.466	18808.54
461.672	18482.92
461.878	19957.46
462.083	18247.4
462.289	18104.04
462.494	17694.45
462.7	16987.9
462.905	16561.92
463.111	17161.98
463.316	17223.42
463.522	16746.24
463.727	17014.52
463.932	16928.51
464.138	16779.01
464.343	16856.83
464.549	16287.5
464.754	16627.46
464.959	16772.86
465.165	16103.18
465.37	15849.23
465.575	15327
465.781	15822.61
465.986	16240.39
466.191	15494.93
466.397	15355.67
466.602	14685.98
466.807	15234.84
467.012	15103.77
467.218	14853.92
467.423	14835.49
467.628	14812.96
467.833	15742.74
468.038	14997.28
468.244	14597.92
