Data from USB4F104151__32__12-27-17-534.txt Node

Date: Fri Mar 14 12:27:17 EDT 2025
User: louis
Spectrometer: USB4F10415
Trigger mode: 4
Integration Time (sec): 2.000000E-2
Scans to average: 1
Electric dark correction enabled: true
Nonlinearity correction enabled: false
Boxcar width: 0
XAxis mode: Wavelengths
Number of Pixels in Spectrum: 3648
>>>>>Begin Spectral Data<<<<<
178.204	-85.5
178.424	-85.5
178.644	-85.5
178.864	-99.84
179.084	-5.63
179.304	39.42
179.524	18.94
179.744	-19.97
179.964	0.51
180.184	-7.68
180.404	12.8
180.624	-11.78
180.844	8.7
181.064	-28.16
181.283	4.61
181.503	-28.16
181.723	10.75
181.943	-54.78
182.163	-13.82
182.383	35.33
182.602	59.9
182.822	29.18
183.042	49.66
183.262	47.62
183.482	45.57
183.701	-22.02
183.921	-9.73
184.141	-52.74
184.361	64
184.58	6.66
184.8	0.51
185.02	-36.35
185.239	18.94
185.459	23.04
185.679	-44.54
185.898	-5.63
186.118	61.95
186.338	-5.63
186.557	6.66
186.777	88.57
186.997	16.9
187.216	25.09
187.436	-3.58
187.655	45.57
187.875	49.66
188.095	43.52
188.314	27.14
188.534	20.99
188.753	27.14
188.973	-24.06
189.192	119.29
189.412	0.51
189.631	33.28
189.851	-34.3
190.07	37.38
190.29	37.38
190.509	-17.92
190.729	20.99
190.948	57.86
191.168	139.77
191.387	-9.73
191.607	-7.68
191.826	53.76
192.045	12.8
192.265	14.85
192.484	0.51
192.704	-54.78
192.923	-7.68
193.142	45.57
193.362	74.24
193.581	55.81
193.8	23.04
194.02	82.43
194.239	70.14
194.458	16.9
194.678	43.52
194.897	8.7
195.116	14.85
195.335	16.9
195.555	55.81
195.774	29.18
195.993	-34.3
196.212	-19.97
196.432	18.94
196.651	-9.73
196.87	53.76
197.089	10.75
197.308	25.09
197.528	80.38
197.747	-19.97
197.966	51.71
198.185	14.85
198.404	33.28
198.623	27.14
198.842	0.51
199.062	49.66
199.281	82.43
199.5	14.85
199.719	14.85
199.938	-46.59
200.157	61.95
200.376	6.66
200.595	-5.63
200.814	76.29
201.033	23.04
201.252	66.05
201.471	-9.73
201.69	25.09
201.909	51.71
202.128	14.85
202.347	-30.21
202.566	23.04
202.785	-50.69
203.004	6.66
203.223	53.76
203.442	6.66
203.661	-7.68
203.879	78.33
204.098	33.28
204.317	-54.78
204.536	-22.02
204.755	29.18
204.974	18.94
205.193	0.51
205.411	45.57
205.63	33.28
205.849	37.38
206.068	29.18
206.287	45.57
206.505	-44.54
206.724	8.7
206.943	35.33
207.162	10.75
207.381	-26.11
207.599	107.01
207.818	16.9
208.037	35.33
208.255	-3.58
208.474	76.29
208.693	49.66
208.911	68.09
209.13	23.04
209.349	53.76
209.567	76.29
209.786	-65.02
210.005	25.09
210.223	29.18
210.442	-28.16
210.661	29.18
210.879	70.14
211.098	-17.92
211.316	10.75
211.535	64
211.753	-15.87
211.972	70.14
212.191	-1.54
212.409	70.14
212.628	23.04
212.846	-22.02
213.065	37.38
213.283	20.99
213.502	-1.54
213.72	20.99
213.938	27.14
214.157	61.95
214.375	51.71
214.594	25.09
214.812	43.52
215.031	0.51
215.249	8.7
215.467	41.47
215.686	-15.87
215.904	35.33
216.122	8.7
216.341	-42.5
216.559	-38.4
216.778	27.14
216.996	2.56
217.214	-58.88
217.432	-40.45
217.651	51.71
217.869	27.14
218.087	39.42
218.306	-26.11
218.524	16.9
218.742	-32.26
218.96	-48.64
219.179	23.04
219.397	-11.78
219.615	49.66
219.833	61.95
220.051	-46.59
220.27	12.8
220.488	90.62
220.706	-32.26
220.924	70.14
221.142	39.42
221.36	-34.3
221.578	-9.73
221.796	41.47
222.015	2.56
222.233	16.9
222.451	2.56
222.669	43.52
222.887	-5.63
223.105	-38.4
223.323	-46.59
223.541	45.57
223.759	18.94
223.977	-19.97
224.195	27.14
224.413	37.38
224.631	123.39
224.849	20.99
225.067	53.76
225.285	-44.54
225.503	10.75
225.721	-11.78
225.939	12.8
226.157	-5.63
226.375	80.38
226.592	-71.17
226.81	66.05
227.028	53.76
227.246	51.71
227.464	86.53
227.682	47.62
227.9	-7.68
228.117	45.57
228.335	43.52
228.553	41.47
228.771	47.62
228.989	-56.83
229.206	61.95
229.424	64
229.642	-7.68
229.86	10.75
230.077	68.09
230.295	78.33
230.513	25.09
230.731	2.56
230.948	27.14
231.166	66.05
231.384	16.9
231.601	12.8
231.819	57.86
232.037	51.71
232.254	-36.35
232.472	43.52
232.689	33.28
232.907	2.56
233.125	4.61
233.342	33.28
233.56	31.23
233.777	14.85
233.995	107.01
234.213	68.09
234.43	18.94
234.648	90.62
234.865	37.38
235.083	-11.78
235.3	47.62
235.518	-22.02
235.735	45.57
235.953	-1.54
236.17	45.57
236.388	4.61
236.605	14.85
236.822	45.57
237.04	68.09
237.257	37.38
237.475	53.76
237.692	23.04
237.909	10.75
238.127	-5.63
238.344	-50.69
238.562	64
238.779	10.75
238.996	66.05
239.214	-5.63
239.431	25.09
239.648	4.61
239.865	35.33
240.083	-9.73
240.3	-17.92
240.517	-40.45
240.735	25.09
240.952	18.94
241.169	70.14
241.386	6.66
241.603	-56.83
241.821	57.86
242.038	-28.16
242.255	2.56
242.472	-116.22
242.689	-11.78
242.907	49.66
243.124	-30.21
243.341	-71.17
243.558	-38.4
243.775	-42.5
243.992	2.56
244.209	76.29
244.426	86.53
244.643	76.29
244.86	-15.87
245.078	18.94
245.295	29.18
245.512	37.38
245.729	0.51
245.946	53.76
246.163	66.05
246.38	12.8
246.597	98.81
246.814	33.28
247.031	45.57
247.248	35.33
247.464	6.66
247.681	45.57
247.898	45.57
248.115	49.66
248.332	0.51
248.549	39.42
248.766	-3.58
248.983	74.24
249.2	68.09
249.417	12.8
249.633	-5.63
249.85	43.52
250.067	37.38
250.284	-3.58
250.501	35.33
250.717	70.14
250.934	-67.07
251.151	27.14
251.368	41.47
251.585	70.14
251.801	-134.65
252.018	-28.16
252.235	55.81
252.451	41.47
252.668	-42.5
252.885	49.66
253.102	57.86
253.318	6.66
253.535	61.95
253.752	2.56
253.968	31.23
254.185	16.9
254.401	8.7
254.618	16.9
254.835	-30.21
255.051	2.56
255.268	-15.87
255.484	-42.5
255.701	0.51
255.917	78.33
256.134	51.71
256.351	-36.35
256.567	27.14
256.784	66.05
257	31.23
257.217	-19.97
257.433	80.38
257.65	-3.58
257.866	96.77
258.082	-44.54
258.299	37.38
258.515	12.8
258.732	-11.78
258.948	-26.11
259.165	4.61
259.381	39.42
259.597	29.18
259.814	-3.58
260.03	-34.3
260.246	-44.54
260.463	-73.21
260.679	-11.78
260.895	41.47
261.112	45.57
261.328	2.56
261.544	94.72
261.761	43.52
261.977	86.53
262.193	-11.78
262.409	98.81
262.626	80.38
262.842	14.85
263.058	8.7
263.274	107.01
263.49	64
263.707	-52.74
263.923	12.8
264.139	10.75
264.355	29.18
264.571	53.76
264.787	31.23
265.004	61.95
265.22	8.7
265.436	80.38
265.652	-11.78
265.868	76.29
266.084	55.81
266.3	16.9
266.516	0.51
266.732	18.94
266.948	37.38
267.164	41.47
267.38	43.52
267.596	10.75
267.812	12.8
268.028	20.99
268.244	-22.02
268.46	-13.82
268.676	-9.73
268.892	-3.58
269.108	33.28
269.324	-22.02
269.54	35.33
269.756	31.23
269.972	35.33
270.188	88.57
270.403	-3.58
270.619	35.33
270.835	0.51
271.051	55.81
271.267	8.7
271.483	29.18
271.698	74.24
271.914	-75.26
272.13	12.8
272.346	68.09
272.562	16.9
272.777	92.67
272.993	4.61
273.209	6.66
273.425	20.99
273.64	-48.64
273.856	55.81
274.072	37.38
274.287	-30.21
274.503	57.86
274.719	29.18
274.934	25.09
275.15	20.99
275.366	49.66
275.581	76.29
275.797	61.95
276.012	-44.54
276.228	-3.58
276.444	14.85
276.659	84.48
276.875	29.18
277.09	-26.11
277.306	37.38
277.521	0.51
277.737	-42.5
277.952	39.42
278.168	12.8
278.383	18.94
278.599	-24.06
278.814	10.75
279.03	66.05
279.245	31.23
279.461	-26.11
279.676	25.09
279.892	-32.26
280.107	49.66
280.322	12.8
280.538	-77.31
280.753	31.23
280.969	29.18
281.184	41.47
281.399	25.09
281.615	23.04
281.83	33.28
282.045	35.33
282.26	41.47
282.476	-30.21
282.691	39.42
282.906	25.09
283.122	2.56
283.337	14.85
283.552	64
283.767	27.14
283.983	92.67
284.198	33.28
284.413	25.09
284.628	-28.16
284.843	-22.02
285.058	12.8
285.274	12.8
285.489	33.28
285.704	74.24
285.919	-81.41
286.134	45.57
286.349	-56.83
286.564	-11.78
286.779	82.43
286.995	59.9
287.21	-24.06
287.425	2.56
287.64	-58.88
287.855	16.9
288.07	39.42
288.285	-3.58
288.5	-5.63
288.715	39.42
288.93	-7.68
289.145	16.9
289.36	57.86
289.575	-7.68
289.79	25.09
290.004	55.81
290.219	12.8
290.434	-36.35
290.649	41.47
290.864	59.9
291.079	33.28
291.294	18.94
291.509	41.47
291.724	49.66
291.938	72.19
292.153	78.33
292.368	-28.16
292.583	33.28
292.798	102.91
293.012	104.96
293.227	12.8
293.442	68.09
293.657	41.47
293.871	25.09
294.086	-15.87
294.301	10.75
294.516	39.42
294.73	111.1
294.945	31.23
295.16	53.76
295.374	47.62
295.589	12.8
295.804	78.33
296.018	61.95
296.233	14.85
296.447	20.99
296.662	18.94
296.877	41.47
297.091	49.66
297.306	8.7
297.52	-52.74
297.735	-44.54
297.949	-5.63
298.164	78.33
298.378	4.61
298.593	0.51
298.807	43.52
299.022	20.99
299.236	18.94
299.451	41.47
299.665	143.87
299.88	-36.35
300.094	29.18
300.309	-1.54
300.523	37.38
300.737	23.04
300.952	0.51
301.166	104.96
301.381	35.33
301.595	20.99
301.809	55.81
302.024	43.52
302.238	16.9
302.452	57.86
302.667	41.47
302.881	14.85
303.095	18.94
303.309	92.67
303.524	33.28
303.738	66.05
303.952	25.09
304.166	10.75
304.381	-24.06
304.595	80.38
304.809	-30.21
305.023	37.38
305.237	27.14
305.452	119.29
305.666	78.33
305.88	76.29
306.094	107.01
306.308	49.66
306.522	-22.02
306.736	-11.78
306.95	-36.35
307.164	16.9
307.379	53.76
307.593	18.94
307.807	16.9
308.021	10.75
308.235	8.7
308.449	31.23
308.663	31.23
308.877	109.05
309.091	20.99
309.305	-3.58
309.519	10.75
309.733	109.05
309.947	14.85
310.161	-5.63
310.374	-28.16
310.588	51.71
310.802	80.38
311.016	18.94
311.23	-13.82
311.444	25.09
311.658	-24.06
311.872	-7.68
312.085	66.05
312.299	59.9
312.513	-46.59
312.727	123.39
312.941	39.42
313.154	33.28
313.368	25.09
313.582	37.38
313.796	20.99
314.009	-3.58
314.223	-24.06
314.437	-22.02
314.651	-1.54
314.864	-26.11
315.078	4.61
315.292	4.61
315.505	-7.68
315.719	-28.16
315.933	88.57
316.146	4.61
316.36	53.76
316.573	29.18
316.787	-34.3
317.001	78.33
317.214	61.95
317.428	0.51
317.641	86.53
317.855	109.05
318.068	-75.26
318.282	2.56
318.495	80.38
318.709	-19.97
318.922	-75.26
319.136	84.48
319.349	47.62
319.563	51.71
319.776	39.42
319.99	14.85
320.203	39.42
320.417	8.7
320.63	8.7
320.843	61.95
321.057	-28.16
321.27	33.28
321.483	102.91
321.697	86.53
321.91	-42.5
322.124	-13.82
322.337	14.85
322.55	55.81
322.763	39.42
322.977	6.66
323.19	70.14
323.403	39.42
323.617	14.85
323.83	61.95
324.043	39.42
324.256	-42.5
324.469	31.23
324.683	72.19
324.896	-36.35
325.109	23.04
325.322	-11.78
325.535	68.09
325.748	49.66
325.962	96.77
326.175	20.99
326.388	45.57
326.601	72.19
326.814	6.66
327.027	2.56
327.24	123.39
327.453	16.9
327.666	-15.87
327.879	86.53
328.092	18.94
328.305	43.52
328.518	84.48
328.731	20.99
328.944	59.9
329.157	-48.64
329.37	55.81
329.583	41.47
329.796	61.95
330.009	70.14
330.222	43.52
330.435	6.66
330.648	68.09
330.861	-28.16
331.073	92.67
331.286	31.23
331.499	12.8
331.712	-44.54
331.925	-15.87
332.138	78.33
332.35	43.52
332.563	2.56
332.776	-9.73
332.989	-19.97
333.202	25.09
333.414	-13.82
333.627	-9.73
333.84	14.85
334.053	6.66
334.265	37.38
334.478	23.04
334.691	66.05
334.903	14.85
335.116	29.18
335.329	49.66
335.541	27.14
335.754	35.33
335.966	39.42
336.179	57.86
336.392	-36.35
336.604	45.57
336.817	31.23
337.029	35.33
337.242	0.51
337.454	18.94
337.667	-58.88
337.88	-5.63
338.092	49.66
338.305	53.76
338.517	2.56
338.729	25.09
338.942	55.81
339.154	100.86
339.367	53.76
339.579	41.47
339.792	-1.54
340.004	12.8
340.217	88.57
340.429	64
340.641	-32.26
340.854	-15.87
341.066	12.8
341.278	98.81
341.491	154.11
341.703	20.99
341.915	-28.16
342.128	104.96
342.34	96.77
342.552	78.33
342.764	90.62
342.977	57.86
343.189	20.99
343.401	92.67
343.613	41.47
343.826	-7.68
344.038	-24.06
344.25	51.71
344.462	-15.87
344.674	41.47
344.886	0.51
345.099	72.19
345.311	23.04
345.523	12.8
345.735	-24.06
345.947	37.38
346.159	33.28
346.371	33.28
346.583	-1.54
346.795	66.05
347.007	76.29
347.219	10.75
347.431	-48.64
347.643	6.66
347.855	37.38
348.067	57.86
348.279	14.85
348.491	6.66
348.703	59.9
348.915	-22.02
349.127	10.75
349.339	41.47
349.551	18.94
349.763	23.04
349.975	18.94
350.187	2.56
350.399	94.72
350.61	53.76
350.822	-38.4
351.034	168.45
351.246	76.29
351.458	43.52
351.669	25.09
351.881	66.05
352.093	70.14
352.305	51.71
352.517	12.8
352.728	74.24
352.94	43.52
353.152	27.14
353.363	49.66
353.575	147.97
353.787	23.04
353.999	14.85
354.21	47.62
354.422	10.75
354.633	29.18
354.845	18.94
355.057	80.38
355.268	43.52
355.48	49.66
355.692	61.95
355.903	57.86
356.115	-17.92
356.326	33.28
356.538	20.99
356.749	41.47
356.961	66.05
357.172	125.44
357.384	59.9
357.595	68.09
357.807	35.33
358.018	88.57
358.23	107.01
358.441	107.01
358.653	0.51
358.864	57.86
359.075	-30.21
359.287	78.33
359.498	16.9
359.709	16.9
359.921	-22.02
360.132	47.62
360.344	49.66
360.555	0.51
360.766	59.9
360.977	-19.97
361.189	104.96
361.4	66.05
361.611	43.52
361.823	68.09
362.034	72.19
362.245	-46.59
362.456	37.38
362.667	25.09
362.879	12.8
363.09	45.57
363.301	43.52
363.512	43.52
363.723	37.38
363.935	72.19
364.146	39.42
364.357	14.85
364.568	-1.54
364.779	-69.12
364.99	43.52
365.201	-48.64
365.412	35.33
365.623	-9.73
365.834	74.24
366.045	41.47
366.256	-19.97
366.467	80.38
366.678	43.52
366.889	80.38
367.1	12.8
367.311	39.42
367.522	16.9
367.733	6.66
367.944	78.33
368.155	6.66
368.366	12.8
368.577	68.09
368.788	92.67
368.999	43.52
369.209	57.86
369.42	80.38
369.631	53.76
369.842	72.19
370.053	-9.73
370.264	102.91
370.474	33.28
370.685	23.04
370.896	12.8
371.107	55.81
371.317	35.33
371.528	49.66
371.739	-1.54
371.95	14.85
372.16	88.57
372.371	16.9
372.582	45.57
372.792	55.81
373.003	31.23
373.214	27.14
373.424	-5.63
373.635	-1.54
373.846	35.33
374.056	6.66
374.267	49.66
374.477	-1.54
374.688	23.04
374.898	64
375.109	4.61
375.319	41.47
375.53	-9.73
375.74	-1.54
375.951	70.14
376.161	0.51
376.372	123.39
376.582	68.09
376.793	55.81
377.003	-9.73
377.214	55.81
377.424	92.67
377.635	53.76
377.845	27.14
378.055	57.86
378.266	59.9
378.476	45.57
378.686	88.57
378.897	-13.82
379.107	45.57
379.317	-3.58
379.528	76.29
379.738	61.95
379.948	25.09
380.158	82.43
380.369	6.66
380.579	12.8
380.789	47.62
380.999	88.57
381.21	-3.58
381.42	-5.63
381.63	64
381.84	25.09
382.05	-13.82
382.261	78.33
382.471	43.52
382.681	100.86
382.891	74.24
383.101	84.48
383.311	59.9
383.521	74.24
383.731	47.62
383.941	139.77
384.151	90.62
384.361	98.81
384.571	41.47
384.781	90.62
384.991	72.19
385.201	31.23
385.411	82.43
385.621	51.71
385.831	-3.58
386.041	82.43
386.251	37.38
386.461	23.04
386.671	66.05
386.881	57.86
387.091	12.8
387.301	10.75
387.511	43.52
387.72	117.25
387.93	49.66
388.14	57.86
388.35	47.62
388.56	49.66
388.769	82.43
388.979	94.72
389.189	-7.68
389.399	39.42
389.609	37.38
389.818	49.66
390.028	18.94
390.238	55.81
390.447	-24.06
390.657	45.57
390.867	74.24
391.076	-13.82
391.286	49.66
391.496	84.48
391.705	25.09
391.915	45.57
392.125	107.01
392.334	4.61
392.544	53.76
392.753	53.76
392.963	-34.3
393.172	94.72
393.382	84.48
393.591	41.47
393.801	41.47
394.01	80.38
394.22	76.29
394.429	47.62
394.639	102.91
394.848	152.06
395.058	109.05
395.267	23.04
395.477	78.33
395.686	61.95
395.895	86.53
396.105	174.59
396.314	111.1
396.524	102.91
396.733	57.86
396.942	80.38
397.152	64
397.361	100.86
397.57	80.38
397.78	127.49
397.989	94.72
398.198	74.24
398.407	109.05
398.617	25.09
398.826	43.52
399.035	88.57
399.244	78.33
399.453	14.85
399.663	137.73
399.872	143.87
400.081	96.77
400.29	107.01
400.499	100.86
400.708	117.25
400.917	37.38
401.127	109.05
401.336	20.99
401.545	129.53
401.754	143.87
401.963	119.29
402.172	70.14
402.381	70.14
402.59	98.81
402.799	125.44
403.008	70.14
403.217	16.9
403.426	100.86
403.635	72.19
403.844	109.05
404.053	74.24
404.262	115.2
404.471	84.48
404.68	129.53
404.888	147.97
405.097	80.38
405.306	180.73
405.515	113.15
405.724	127.49
405.933	197.12
406.142	102.91
406.35	125.44
406.559	55.81
406.768	129.53
406.977	150.01
407.185	186.88
407.394	180.73
407.603	92.67
407.812	178.69
408.02	150.01
408.229	221.69
408.438	174.59
408.646	78.33
408.855	160.25
409.064	250.36
409.272	225.79
409.481	276.99
409.69	238.08
409.898	178.69
410.107	250.36
410.315	145.92
410.524	246.27
410.733	274.94
410.941	240.12
411.15	254.46
411.358	276.99
411.567	352.76
411.775	240.12
411.984	340.47
412.192	367.1
412.401	412.15
412.609	446.97
412.818	371.19
413.026	360.95
413.234	422.39
413.443	422.39
413.651	389.63
413.86	436.73
414.068	485.88
414.276	475.64
414.485	502.26
414.693	520.7
414.901	604.66
415.11	535.03
415.318	514.55
415.526	659.96
415.734	578.04
415.943	633.33
416.151	657.91
416.359	731.64
416.567	729.59
416.776	733.68
416.984	647.67
417.192	799.22
417.4	803.32
417.608	739.83
417.817	813.56
418.025	899.57
418.233	885.23
418.441	885.23
418.649	932.34
418.857	985.58
419.065	1165.81
419.273	1038.83
419.481	1077.74
419.689	1112.56
419.897	1124.85
420.105	1180.14
420.313	1229.29
420.521	1266.16
420.729	1296.88
420.937	1348.08
421.145	1343.98
421.353	1518.06
421.561	1491.43
421.769	1552.87
421.977	1591.78
422.185	1622.5
422.393	1696.23
422.601	1843.68
422.809	1796.58
423.017	1792.48
423.224	1855.97
423.432	1950.18
423.64	1968.61
423.848	2148.83
424.056	2058.72
424.263	2187.74
424.471	2243.04
424.679	2380.25
424.887	2277.85
425.094	2453.98
425.302	2499.03
425.51	2507.23
425.718	2689.49
425.925	2793.94
426.133	2785.75
426.341	3013.07
426.548	3011.03
426.756	3070.42
426.964	3187.15
427.171	3377.61
427.379	3385.8
427.586	3406.28
427.794	3541.45
428.001	3641.8
428.209	3666.38
428.417	3830.21
428.624	4147.65
428.832	4063.68
429.039	4016.58
429.247	4168.13
429.454	4524.47
429.662	4729.27
429.869	4272.57
430.076	4663.74
430.284	4614.59
430.491	4850.1
430.699	5173.68
430.906	5128.63
431.114	5196.21
431.321	5331.37
431.528	5484.97
431.736	5835.17
431.943	6119.84
432.15	5761.45
432.358	6009.25
432.565	6295.97
432.772	6289.82
432.979	6666.65
433.187	6875.54
433.394	6769.05
433.601	7274.9
433.808	7289.23
434.016	7225.75
434.223	7612.81
434.43	7979.4
434.637	7948.68
434.844	8288.64
435.052	8438.14
435.259	8540.54
435.466	8569.21
435.673	8458.62
435.88	9027.96
436.087	9345.39
436.294	9597.29
436.501	9191.8
436.708	9548.14
436.915	9726.32
437.122	10348.9
437.329	10180.96
437.537	10641.76
437.743	10748.25
437.95	10705.24
438.157	11176.28
438.364	11462.99
438.571	11448.66
438.778	11671.89
438.985	12499.27
439.192	12101.96
439.399	12554.56
439.606	12163.4
439.813	12958.01
440.02	13377.84
440.227	13439.28
440.433	13236.53
440.64	13687.09
440.847	13609.26
441.054	13951.28
441.261	15051.03
441.467	14653.73
441.674	15008.03
441.881	15538.45
442.088	15530.26
442.294	15366.42
442.501	15583.51
442.708	16337.16
442.914	16984.32
443.121	17688.82
443.328	17078.52
443.534	18102.51
443.741	17619.19
443.948	17586.42
444.154	18845.92
444.361	18936.03
444.568	18917.6
444.774	19032.29
444.981	19132.64
445.187	19648.72
445.394	20558.02
445.6	20242.64
445.807	22120.62
446.013	21403.83
446.22	21692.6
446.426	22671.53
446.633	22923.43
446.839	23269.53
447.046	22450.35
447.252	23797.91
447.459	23832.72
447.665	23558.3
447.871	24830.09
448.078	26024.05
448.284	24854.66
448.491	25405.56
448.697	26046.58
448.903	26966.12
449.11	26951.78
449.316	26433.64
449.522	26968.16
449.728	27670.62
449.935	27867.22
450.141	27773.02
450.347	28342.35
450.553	27654.23
450.76	28364.88
450.966	29085.76
451.172	28473.42
451.378	29558.84
451.584	28827.72
451.791	29497.41
451.997	29337.66
452.203	29771.83
452.409	29999.16
452.615	29747.26
452.821	28964.93
453.027	28457.04
453.233	29747.26
453.44	28840.01
453.646	29155.4
453.852	29401.15
454.058	29734.97
454.264	28411.98
454.47	29257.79
454.676	28694.6
454.882	29841.46
455.088	27310.18
455.294	27709.53
455.5	27918.42
455.705	28598.35
455.911	27160.67
456.117	26822.76
456.323	26278
456.529	24930.44
456.735	25770.1
456.941	25094.27
457.147	24885.38
457.352	24309.9
457.558	24078.48
457.764	23769.24
457.97	23537.82
458.176	22890.66
458.381	22904.99
458.587	21862.58
458.793	21930.16
458.999	21113.02
459.204	22323.37
459.41	21487.8
459.616	20340.94
459.821	20267.21
460.027	20070.61
460.233	19517.65
460.438	18686.18
460.644	19204.31
460.85	18043.12
461.055	17694.96
461.261	17719.54
461.466	16517.38
461.672	16091.4
461.878	17207.55
462.083	16025.87
462.289	15778.06
462.494	15536.4
462.7	14948.64
462.905	14405.92
463.111	14764.32
463.316	15008.03
463.522	14686.5
463.727	14801.18
463.932	14672.16
464.138	14627.1
464.343	14487.84
464.549	14033.19
464.754	14641.44
464.959	14543.14
465.165	14436.64
465.37	13605.17
465.575	13394.23
465.781	13576.5
465.986	14143.78
466.191	13662.51
466.397	13107.51
466.602	12636.48
466.807	13179.19
467.012	13025.59
467.218	12970.3
467.423	12923.19
467.628	12988.73
467.833	13531.44
468.038	13095.22
468.244	12591.42
