Data from USB4F104151__74__12-27-48-931.txt Node

Date: Fri Mar 14 12:27:48 EDT 2025
User: louis
Spectrometer: USB4F10415
Trigger mode: 4
Integration Time (sec): 2.000000E-2
Scans to average: 1
Electric dark correction enabled: true
Nonlinearity correction enabled: false
Boxcar width: 0
XAxis mode: Wavelengths
Number of Pixels in Spectrum: 3648
>>>>>Begin Spectral Data<<<<<
178.204	-49.66
178.424	-49.66
178.644	-49.66
178.864	-90.62
179.084	-100.86
179.304	-39.42
179.524	-0.51
179.744	-45.57
179.964	60.93
180.184	-14.85
180.404	65.02
180.624	-37.38
180.844	-12.8
181.064	-55.81
181.283	1.54
181.503	30.21
181.723	48.64
181.943	28.16
182.163	42.5
182.383	62.98
182.602	67.07
182.822	28.16
183.042	95.74
183.262	56.83
183.482	46.59
183.701	24.06
183.921	-47.62
184.141	32.26
184.361	-4.61
184.58	81.41
184.8	28.16
185.02	-2.56
185.239	85.5
185.459	56.83
185.679	46.59
185.898	-2.56
186.118	58.88
186.338	11.78
186.557	46.59
186.777	46.59
186.997	-29.18
187.216	30.21
187.436	60.93
187.655	-12.8
187.875	69.12
188.095	-12.8
188.314	81.41
188.534	71.17
188.753	-18.94
188.973	24.06
189.192	93.69
189.412	-2.56
189.631	15.87
189.851	38.4
190.07	48.64
190.29	-23.04
190.509	-53.76
190.729	40.45
190.948	11.78
191.168	95.74
191.387	-6.66
191.607	7.68
191.826	26.11
192.045	-29.18
192.265	-2.56
192.484	30.21
192.704	73.21
192.923	-49.66
193.142	77.31
193.362	81.41
193.581	36.35
193.8	69.12
194.02	42.5
194.239	3.58
194.458	40.45
194.678	-16.9
194.897	40.45
195.116	50.69
195.335	77.31
195.555	28.16
195.774	17.92
195.993	9.73
196.212	36.35
196.432	-12.8
196.651	138.75
196.87	-10.75
197.089	71.17
197.308	50.69
197.528	7.68
197.747	69.12
197.966	3.58
198.185	7.68
198.404	48.64
198.623	71.17
198.842	22.02
199.062	36.35
199.281	67.07
199.5	126.46
199.719	32.26
199.938	-16.9
200.157	36.35
200.376	103.93
200.595	-18.94
200.814	9.73
201.033	124.41
201.252	24.06
201.471	54.78
201.69	93.69
201.909	-25.09
202.128	32.26
202.347	34.3
202.566	19.97
202.785	105.98
203.004	17.92
203.223	15.87
203.442	105.98
203.661	-6.66
203.879	46.59
204.098	54.78
204.317	71.17
204.536	58.88
204.755	3.58
204.974	73.21
205.193	62.98
205.411	65.02
205.63	54.78
205.849	73.21
206.068	-10.75
206.287	36.35
206.505	24.06
206.724	34.3
206.943	-66.05
207.162	-0.51
207.381	69.12
207.599	81.41
207.818	48.64
208.037	48.64
208.255	42.5
208.474	19.97
208.693	112.13
208.911	5.63
209.13	52.74
209.349	79.36
209.567	3.58
209.786	73.21
210.005	30.21
210.223	60.93
210.442	-53.76
210.661	48.64
210.879	40.45
211.098	38.4
211.316	46.59
211.535	-18.94
211.753	19.97
211.972	24.06
212.191	83.45
212.409	-23.04
212.628	81.41
212.846	56.83
213.065	97.79
213.283	87.55
213.502	26.11
213.72	52.74
213.938	24.06
214.157	105.98
214.375	-16.9
214.594	48.64
214.812	38.4
215.031	-33.28
215.249	85.5
215.467	34.3
215.686	-0.51
215.904	48.64
216.122	-16.9
216.341	34.3
216.559	46.59
216.778	85.5
216.996	54.78
217.214	44.54
217.432	3.58
217.651	67.07
217.869	91.65
218.087	50.69
218.306	91.65
218.524	42.5
218.742	22.02
218.96	54.78
219.179	-0.51
219.397	42.5
219.615	32.26
219.833	9.73
220.051	97.79
220.27	26.11
220.488	19.97
220.706	-0.51
220.924	-14.85
221.142	22.02
221.36	60.93
221.578	5.63
221.796	30.21
222.015	58.88
222.233	26.11
222.451	97.79
222.669	17.92
222.887	-25.09
223.105	13.82
223.323	-23.04
223.541	15.87
223.759	69.12
223.977	3.58
224.195	40.45
224.413	-25.09
224.631	7.68
224.849	7.68
225.067	97.79
225.285	36.35
225.503	42.5
225.721	26.11
225.939	-0.51
226.157	13.82
226.375	103.93
226.592	9.73
226.81	48.64
227.028	36.35
227.246	65.02
227.464	-20.99
227.682	77.31
227.9	34.3
228.117	-31.23
228.335	-16.9
228.553	87.55
228.771	38.4
228.989	34.3
229.206	77.31
229.424	54.78
229.642	26.11
229.86	73.21
230.077	-6.66
230.295	32.26
230.513	132.61
230.731	13.82
230.948	114.17
231.166	108.03
231.384	-10.75
231.601	-16.9
231.819	81.41
232.037	-10.75
232.254	9.73
232.472	56.83
232.689	77.31
232.907	42.5
233.125	32.26
233.342	-18.94
233.56	5.63
233.777	58.88
233.995	65.02
234.213	99.84
234.43	81.41
234.648	9.73
234.865	15.87
235.083	93.69
235.3	95.74
235.518	28.16
235.735	19.97
235.953	75.26
236.17	58.88
236.388	40.45
236.605	-2.56
236.822	-10.75
237.04	17.92
237.257	19.97
237.475	32.26
237.692	17.92
237.909	15.87
238.127	22.02
238.344	103.93
238.562	87.55
238.779	-70.14
238.996	-8.7
239.214	30.21
239.431	32.26
239.648	54.78
239.865	50.69
240.083	91.65
240.3	85.5
240.517	9.73
240.735	-14.85
240.952	28.16
241.169	67.07
241.386	34.3
241.603	97.79
241.821	50.69
242.038	56.83
242.255	67.07
242.472	-61.95
242.689	-53.76
242.907	3.58
243.124	9.73
243.341	7.68
243.558	-14.85
243.775	52.74
243.992	17.92
244.209	101.89
244.426	75.26
244.643	13.82
244.86	58.88
245.078	71.17
245.295	126.46
245.512	24.06
245.729	67.07
245.946	73.21
246.163	32.26
246.38	58.88
246.597	7.68
246.814	46.59
247.031	48.64
247.248	75.26
247.464	44.54
247.681	67.07
247.898	67.07
248.115	34.3
248.332	-23.04
248.549	5.63
248.766	79.36
248.983	42.5
249.2	77.31
249.417	77.31
249.633	3.58
249.85	75.26
250.067	36.35
250.284	-14.85
250.501	67.07
250.717	44.54
250.934	-6.66
251.151	-8.7
251.368	-0.51
251.585	22.02
251.801	38.4
252.018	52.74
252.235	62.98
252.451	58.88
252.668	-27.14
252.885	-0.51
253.102	46.59
253.318	36.35
253.535	54.78
253.752	65.02
253.968	54.78
254.185	28.16
254.401	11.78
254.618	3.58
254.835	-23.04
255.051	65.02
255.268	42.5
255.484	-25.09
255.701	89.6
255.917	69.12
256.134	24.06
256.351	-10.75
256.567	38.4
256.784	38.4
257	3.58
257.217	83.45
257.433	44.54
257.65	17.92
257.866	130.56
258.082	-31.23
258.299	17.92
258.515	17.92
258.732	67.07
258.948	-68.09
259.165	34.3
259.381	11.78
259.597	3.58
259.814	60.93
260.03	28.16
260.246	36.35
260.463	93.69
260.679	50.69
260.895	46.59
261.112	28.16
261.328	38.4
261.544	22.02
261.761	36.35
261.977	17.92
262.193	38.4
262.409	67.07
262.626	15.87
262.842	48.64
263.058	11.78
263.274	108.03
263.49	91.65
263.707	34.3
263.923	40.45
264.139	-27.14
264.355	-47.62
264.571	75.26
264.787	13.82
265.004	73.21
265.22	34.3
265.436	44.54
265.652	69.12
265.868	71.17
266.084	42.5
266.3	40.45
266.516	17.92
266.732	3.58
266.948	-41.47
267.164	-18.94
267.38	118.27
267.596	48.64
267.812	130.56
268.028	1.54
268.244	28.16
268.46	60.93
268.676	54.78
268.892	44.54
269.108	-18.94
269.324	-8.7
269.54	40.45
269.756	-2.56
269.972	56.83
270.188	34.3
270.403	73.21
270.619	81.41
270.835	-18.94
271.051	26.11
271.267	77.31
271.483	-23.04
271.698	22.02
271.914	40.45
272.13	42.5
272.346	62.98
272.562	-51.71
272.777	7.68
272.993	-23.04
273.209	60.93
273.425	56.83
273.64	9.73
273.856	128.51
274.072	50.69
274.287	3.58
274.503	-6.66
274.719	62.98
274.934	103.93
275.15	28.16
275.366	69.12
275.581	1.54
275.797	34.3
276.012	108.03
276.228	40.45
276.444	67.07
276.659	26.11
276.875	124.41
277.09	36.35
277.306	22.02
277.521	52.74
277.737	67.07
277.952	58.88
278.168	67.07
278.383	-66.05
278.599	5.63
278.814	42.5
279.03	22.02
279.245	28.16
279.461	-35.33
279.676	17.92
279.892	3.58
280.107	91.65
280.322	-37.38
280.538	15.87
280.753	-20.99
280.969	42.5
281.184	56.83
281.399	30.21
281.615	40.45
281.83	42.5
282.045	38.4
282.26	71.17
282.476	1.54
282.691	110.08
282.906	52.74
283.122	60.93
283.337	56.83
283.552	85.5
283.767	-0.51
283.983	85.5
284.198	30.21
284.413	13.82
284.628	71.17
284.843	56.83
285.058	36.35
285.274	48.64
285.489	81.41
285.704	118.27
285.919	62.98
286.134	32.26
286.349	85.5
286.564	85.5
286.779	85.5
286.995	26.11
287.21	-0.51
287.425	42.5
287.64	13.82
287.855	-25.09
288.07	5.63
288.285	50.69
288.5	73.21
288.715	62.98
288.93	13.82
289.145	26.11
289.36	101.89
289.575	1.54
289.79	15.87
290.004	-29.18
290.219	75.26
290.434	67.07
290.649	36.35
290.864	65.02
291.079	3.58
291.294	58.88
291.509	38.4
291.724	40.45
291.938	-49.66
292.153	73.21
292.368	42.5
292.583	-6.66
292.798	24.06
293.012	-53.76
293.227	-10.75
293.442	-6.66
293.657	38.4
293.871	48.64
294.086	77.31
294.301	26.11
294.516	95.74
294.73	108.03
294.945	-2.56
295.16	138.75
295.374	77.31
295.589	81.41
295.804	-6.66
296.018	54.78
296.233	46.59
296.447	-4.61
296.662	50.69
296.877	56.83
297.091	81.41
297.306	140.8
297.52	56.83
297.735	-4.61
297.949	3.58
298.164	-68.09
298.378	75.26
298.593	89.6
298.807	-6.66
299.022	120.32
299.236	65.02
299.451	3.58
299.665	46.59
299.88	1.54
300.094	19.97
300.309	5.63
300.523	30.21
300.737	-2.56
300.952	77.31
301.166	79.36
301.381	22.02
301.595	15.87
301.809	40.45
302.024	46.59
302.238	-29.18
302.452	67.07
302.667	-35.33
302.881	28.16
303.095	58.88
303.309	17.92
303.524	-25.09
303.738	58.88
303.952	62.98
304.166	65.02
304.381	11.78
304.595	101.89
304.809	30.21
305.023	15.87
305.237	67.07
305.452	26.11
305.666	101.89
305.88	-14.85
306.094	11.78
306.308	54.78
306.522	116.22
306.736	-10.75
306.95	105.98
307.164	81.41
307.379	7.68
307.593	52.74
307.807	-0.51
308.021	95.74
308.235	91.65
308.449	-0.51
308.663	5.63
308.877	50.69
309.091	-27.14
309.305	40.45
309.519	-37.38
309.733	71.17
309.947	42.5
310.161	17.92
310.374	13.82
310.588	22.02
310.802	17.92
311.016	50.69
311.23	62.98
311.444	56.83
311.658	69.12
311.872	77.31
312.085	24.06
312.299	30.21
312.513	-25.09
312.727	11.78
312.941	40.45
313.154	44.54
313.368	67.07
313.582	89.6
313.796	28.16
314.009	69.12
314.223	69.12
314.437	83.45
314.651	56.83
314.864	30.21
315.078	5.63
315.292	52.74
315.505	46.59
315.719	105.98
315.933	17.92
316.146	5.63
316.36	19.97
316.573	97.79
316.787	83.45
317.001	-35.33
317.214	24.06
317.428	26.11
317.641	22.02
317.855	22.02
318.068	48.64
318.282	97.79
318.495	24.06
318.709	42.5
318.922	54.78
319.136	73.21
319.349	58.88
319.563	85.5
319.776	67.07
319.99	13.82
320.203	24.06
320.417	28.16
320.63	58.88
320.843	116.22
321.057	93.69
321.27	42.5
321.483	-10.75
321.697	42.5
321.91	93.69
322.124	132.61
322.337	71.17
322.55	-6.66
322.763	-8.7
322.977	73.21
323.19	44.54
323.403	85.5
323.617	26.11
323.83	97.79
324.043	17.92
324.256	9.73
324.469	50.69
324.683	38.4
324.896	58.88
325.109	15.87
325.322	-8.7
325.535	91.65
325.748	50.69
325.962	19.97
326.175	32.26
326.388	60.93
326.601	-6.66
326.814	5.63
327.027	46.59
327.24	56.83
327.453	-70.14
327.666	60.93
327.879	46.59
328.092	-0.51
328.305	15.87
328.518	40.45
328.731	40.45
328.944	67.07
329.157	54.78
329.37	73.21
329.583	67.07
329.796	32.26
330.009	9.73
330.222	22.02
330.435	48.64
330.648	38.4
330.861	-16.9
331.073	54.78
331.286	-0.51
331.499	105.98
331.712	-4.61
331.925	52.74
332.138	34.3
332.35	40.45
332.563	77.31
332.776	89.6
332.989	-8.7
333.202	1.54
333.414	58.88
333.627	85.5
333.84	81.41
334.053	36.35
334.265	42.5
334.478	48.64
334.691	40.45
334.903	81.41
335.116	75.26
335.329	56.83
335.541	-8.7
335.754	101.89
335.966	56.83
336.179	5.63
336.392	65.02
336.604	36.35
336.817	112.13
337.029	169.47
337.242	58.88
337.454	73.21
337.667	62.98
337.88	56.83
338.092	103.93
338.305	73.21
338.517	3.58
338.729	79.36
338.942	3.58
339.154	110.08
339.367	30.21
339.579	42.5
339.792	15.87
340.004	112.13
340.217	-2.56
340.429	24.06
340.641	58.88
340.854	-55.81
341.066	9.73
341.278	79.36
341.491	75.26
341.703	52.74
341.915	73.21
342.128	7.68
342.34	48.64
342.552	73.21
342.764	30.21
342.977	15.87
343.189	54.78
343.401	7.68
343.613	42.5
343.826	124.41
344.038	58.88
344.25	34.3
344.462	30.21
344.674	50.69
344.886	-8.7
345.099	136.7
345.311	54.78
345.523	103.93
345.735	-0.51
345.947	32.26
346.159	77.31
346.371	99.84
346.583	13.82
346.795	155.13
347.007	13.82
347.219	83.45
347.431	24.06
347.643	36.35
347.855	54.78
348.067	108.03
348.279	11.78
348.491	40.45
348.703	17.92
348.915	56.83
349.127	83.45
349.339	5.63
349.551	34.3
349.763	34.3
349.975	58.88
350.187	7.68
350.399	67.07
350.61	24.06
350.822	-12.8
351.034	138.75
351.246	5.63
351.458	81.41
351.669	75.26
351.881	83.45
352.093	40.45
352.305	40.45
352.517	110.08
352.728	34.3
352.94	103.93
353.152	58.88
353.363	69.12
353.575	97.79
353.787	54.78
353.999	97.79
354.21	38.4
354.422	36.35
354.633	116.22
354.845	54.78
355.057	138.75
355.268	65.02
355.48	101.89
355.692	48.64
355.903	52.74
356.115	17.92
356.326	48.64
356.538	116.22
356.749	71.17
356.961	48.64
357.172	69.12
357.384	81.41
357.595	110.08
357.807	3.58
358.018	-0.51
358.23	19.97
358.441	17.92
358.653	87.55
358.864	75.26
359.075	67.07
359.287	146.94
359.498	73.21
359.709	50.69
359.921	85.5
360.132	42.5
360.344	91.65
360.555	15.87
360.766	56.83
360.977	-4.61
361.189	40.45
361.4	38.4
361.611	120.32
361.823	42.5
362.034	75.26
362.245	-18.94
362.456	22.02
362.667	22.02
362.879	15.87
363.09	60.93
363.301	52.74
363.512	32.26
363.723	1.54
363.935	22.02
364.146	36.35
364.357	50.69
364.568	62.98
364.779	44.54
364.99	44.54
365.201	73.21
365.412	83.45
365.623	-10.75
365.834	58.88
366.045	44.54
366.256	65.02
366.467	13.82
366.678	42.5
366.889	15.87
367.1	124.41
367.311	-37.38
367.522	85.5
367.733	67.07
367.944	-10.75
368.155	89.6
368.366	89.6
368.577	48.64
368.788	7.68
368.999	-0.51
369.209	89.6
369.42	71.17
369.631	60.93
369.842	65.02
370.053	58.88
370.264	99.84
370.474	130.56
370.685	38.4
370.896	38.4
371.107	17.92
371.317	132.61
371.528	91.65
371.739	103.93
371.95	52.74
372.16	62.98
372.371	83.45
372.582	101.89
372.792	48.64
373.003	91.65
373.214	69.12
373.424	22.02
373.635	-23.04
373.846	75.26
374.056	120.32
374.267	44.54
374.477	30.21
374.688	89.6
374.898	67.07
375.109	71.17
375.319	93.69
375.53	114.17
375.74	-0.51
375.951	32.26
376.161	69.12
376.372	65.02
376.582	3.58
376.793	153.09
377.003	73.21
377.214	65.02
377.424	46.59
377.635	-2.56
377.845	34.3
378.055	108.03
378.266	36.35
378.476	-0.51
378.686	71.17
378.897	108.03
379.107	71.17
379.317	19.97
379.528	48.64
379.738	-12.8
379.948	28.16
380.158	19.97
380.369	65.02
380.579	-43.52
380.789	97.79
380.999	77.31
381.21	77.31
381.42	69.12
381.63	62.98
381.84	71.17
382.05	62.98
382.261	101.89
382.471	124.41
382.681	89.6
382.891	85.5
383.101	85.5
383.311	54.78
383.521	44.54
383.731	62.98
383.941	71.17
384.151	71.17
384.361	151.04
384.571	116.22
384.781	46.59
384.991	32.26
385.201	77.31
385.411	71.17
385.621	48.64
385.831	73.21
386.041	108.03
386.251	26.11
386.461	116.22
386.671	-0.51
386.881	71.17
387.091	48.64
387.301	91.65
387.511	11.78
387.72	112.13
387.93	54.78
388.14	36.35
388.35	67.07
388.56	81.41
388.769	38.4
388.979	77.31
389.189	32.26
389.399	108.03
389.609	93.69
389.818	130.56
390.028	81.41
390.238	87.55
390.447	110.08
390.657	91.65
390.867	42.5
391.076	62.98
391.286	30.21
391.496	56.83
391.705	91.65
391.915	89.6
392.125	60.93
392.334	7.68
392.544	32.26
392.753	67.07
392.963	38.4
393.172	81.41
393.382	97.79
393.591	134.65
393.801	112.13
394.01	91.65
394.22	114.17
394.429	85.5
394.639	52.74
394.848	83.45
395.058	120.32
395.267	5.63
395.477	83.45
395.686	89.6
395.895	60.93
396.105	112.13
396.314	122.37
396.524	52.74
396.733	85.5
396.942	17.92
397.152	81.41
397.361	124.41
397.57	148.99
397.78	71.17
397.989	28.16
398.198	112.13
398.407	124.41
398.617	62.98
398.826	101.89
399.035	146.94
399.244	101.89
399.453	108.03
399.663	54.78
399.872	108.03
400.081	26.11
400.29	130.56
400.499	9.73
400.708	132.61
400.917	179.71
401.127	114.17
401.336	124.41
401.545	187.9
401.754	126.46
401.963	165.37
402.172	46.59
402.381	140.8
402.59	69.12
402.799	140.8
403.008	69.12
403.217	118.27
403.426	128.51
403.635	89.6
403.844	126.46
404.053	99.84
404.262	167.42
404.471	79.36
404.68	155.13
404.888	93.69
405.097	167.42
405.306	163.33
405.515	130.56
405.724	181.76
405.933	208.38
406.142	148.99
406.35	181.76
406.559	140.8
406.768	95.74
406.977	97.79
407.185	148.99
407.394	208.38
407.603	192
407.812	204.28
408.02	132.61
408.229	192
408.438	132.61
408.646	232.96
408.855	151.04
409.064	230.91
409.272	185.85
409.481	245.24
409.69	177.66
409.898	222.72
410.107	370.17
410.315	275.96
410.524	298.49
410.733	239.1
410.941	327.16
411.15	247.29
411.358	376.31
411.567	302.59
411.775	331.26
411.984	333.31
412.192	318.97
412.401	361.98
412.609	433.66
412.818	452.09
413.026	476.66
413.234	374.27
413.443	441.85
413.651	439.8
413.86	392.7
414.068	507.38
414.276	566.78
414.485	450.04
414.693	556.54
414.901	579.06
415.11	538.1
415.318	609.78
415.526	617.97
415.734	669.17
415.943	605.69
416.151	691.7
416.359	636.41
416.567	669.17
416.776	718.33
416.984	716.28
417.192	757.24
417.4	808.44
417.608	814.58
417.817	759.28
418.025	835.06
418.233	976.37
418.441	828.92
418.649	980.47
418.857	1062.38
419.065	992.75
419.273	990.7
419.481	1015.28
419.689	1097.2
419.897	1236.46
420.105	1144.3
420.313	1267.18
420.521	1215.98
420.729	1265.13
420.937	1373.68
421.145	1492.46
421.353	1471.98
421.561	1557.99
421.769	1514.98
421.977	1656.29
422.185	1576.42
422.393	1719.78
422.601	1824.23
422.809	1742.31
423.017	1824.23
423.224	1930.72
423.432	2031.07
423.64	1945.06
423.848	2110.94
424.056	2135.52
424.263	2227.68
424.471	2287.07
424.679	2250.21
424.887	2362.84
425.094	2444.76
425.302	2528.73
425.51	2651.61
425.718	2741.72
425.925	2698.71
426.133	2819.54
426.341	2870.74
426.548	3106.26
426.756	3042.77
426.964	3028.43
427.171	3237.33
427.379	3284.43
427.586	3380.68
427.794	3546.57
428.001	3685.83
428.209	3833.29
428.417	3907.01
428.624	4033.99
428.832	4126.15
429.039	4023.75
429.247	4072.9
429.454	4449.72
429.662	4785.59
429.869	4480.44
430.076	4799.93
430.284	4603.32
430.491	4816.31
430.699	5103.03
430.906	5262.77
431.114	5170.61
431.321	5434.8
431.528	5483.95
431.736	5864.87
431.943	6086.05
432.15	5969.32
432.358	5918.12
432.565	6321.57
432.772	6137.25
432.979	6624.67
433.187	6774.17
433.394	6755.74
433.601	7142.8
433.808	7181.71
434.016	7212.43
434.223	7474.57
434.43	7939.46
434.637	7931.27
434.844	8344.96
435.052	8480.13
435.259	8619.39
435.466	8580.48
435.673	8473.98
435.88	8691.07
436.087	9540.97
436.294	9741.68
436.501	9311.6
436.708	9262.45
436.915	9569.65
437.122	10089.83
437.329	10118.5
437.537	10489.18
437.743	10538.34
437.95	10503.52
438.157	11265.36
438.364	11466.07
438.571	11769.16
438.778	11556.18
438.985	12584.26
439.192	12119.37
439.399	12393.79
439.606	12131.65
439.813	12760.38
440.02	13419.83
440.227	13299
440.433	13399.35
440.64	13821.23
440.847	13491.51
441.054	13937.96
441.261	15064.35
441.467	14843.17
441.674	15041.82
441.881	15703.31
442.088	15799.57
442.294	15394.07
442.501	15899.92
442.708	16512.26
442.914	16768.26
443.121	17583.35
443.328	17048.83
443.534	18203.88
443.741	17865.97
443.948	17405.17
444.154	18937.06
444.361	18853.09
444.568	18894.05
444.774	18922.72
444.981	18988.25
445.187	19678.42
445.394	20718.79
445.6	20317.39
445.807	22279.34
446.013	21306.55
446.22	21716.15
446.426	22576.3
446.633	22668.45
446.839	23606.42
447.046	22553.77
447.252	23899.28
447.459	23860.37
447.665	23796.88
447.871	25101.44
448.078	26063.99
448.284	24812.68
448.491	25302.14
448.697	26514.54
448.903	26721.38
449.11	26905.7
449.316	26825.83
449.522	26829.93
449.728	27839.58
449.935	27960.41
450.141	27876.44
450.347	28443.73
450.553	27823.19
450.76	28128.34
450.966	28910.66
451.172	28759.11
451.378	29334.59
451.584	28886.09
451.791	29946.94
451.997	29482.05
452.203	30221.36
452.409	29969.46
452.615	29893.69
452.821	28738.63
453.027	28593.23
453.233	30100.53
453.44	28968.01
453.646	29248.58
453.852	29350.98
454.058	29674.56
454.264	28976.2
454.47	29750.33
454.676	28740.68
454.882	29660.22
455.088	27202.66
455.294	27706.46
455.5	27909.21
455.705	28326.99
455.911	27196.51
456.117	26748.01
456.323	26602.6
456.529	25267.33
456.735	25934.96
456.941	25304.19
457.147	24886.4
457.352	24251.53
457.558	23911.57
457.764	23934.1
457.97	23620.76
458.176	23047.33
458.381	23006.37
458.587	21974.19
458.793	21775.54
458.999	20821.19
459.204	22199.47
459.41	21769.4
459.616	20151.5
459.821	20141.26
460.027	20421.83
460.233	19711.19
460.438	18959.58
460.644	19123.42
460.85	18312.42
461.055	17974.51
461.261	17968.37
461.466	16405.77
461.672	15965.45
461.878	17057.02
462.083	15869.2
462.289	15566.1
462.494	15486.23
462.7	14877.98
462.905	14685.47
463.111	14884.12
463.316	15037.72
463.522	14703.9
463.727	15064.35
463.932	14732.58
464.138	14611.75
464.343	14738.72
464.549	14230.82
464.754	14757.15
464.959	14423.33
465.165	14458.15
465.37	13866.28
465.575	13350.2
465.781	14015.79
465.986	14222.63
466.191	13686.06
466.397	13272.37
466.602	12920.12
466.807	13014.33
467.012	13067.58
467.218	12965.18
467.423	12895.55
467.628	13028.67
467.833	13503.79
468.038	13247.8
468.244	12473.67
468.449	13186.36
