Data from USB4F104151__63__12-27-41-312.txt Node

Date: Fri Mar 14 12:27:41 EDT 2025
User: louis
Spectrometer: USB4F10415
Trigger mode: 4
Integration Time (sec): 2.000000E-2
Scans to average: 1
Electric dark correction enabled: true
Nonlinearity correction enabled: false
Boxcar width: 0
XAxis mode: Wavelengths
Number of Pixels in Spectrum: 3648
>>>>>Begin Spectral Data<<<<<
178.204	-82.77
178.424	-82.77
178.644	-82.77
178.864	-60.24
179.084	-60.24
179.304	-7
179.524	15.53
179.744	13.48
179.964	-7
180.184	-9.05
180.404	52.39
180.624	48.3
180.844	-39.76
181.064	-19.29
181.283	25.77
181.503	-103.25
181.723	29.87
181.943	-17.24
182.163	7.34
182.383	-13.14
182.602	-0.85
182.822	5.29
183.042	42.15
183.262	3.24
183.482	21.67
183.701	-54.1
183.921	87.21
184.141	-60.24
184.361	89.26
184.58	-23.38
184.8	-0.85
185.02	27.82
185.239	113.83
185.459	-25.43
185.679	5.29
185.898	-37.72
186.118	21.67
186.338	23.72
186.557	11.43
186.777	13.48
186.997	5.29
187.216	42.15
187.436	1.19
187.655	54.44
187.875	-37.72
188.095	-4.95
188.314	64.68
188.534	42.15
188.753	-62.29
188.973	-7
189.192	5.29
189.412	27.82
189.631	40.11
189.851	-21.33
190.07	130.22
190.29	50.35
190.509	48.3
190.729	7.34
190.948	36.01
191.168	70.83
191.387	40.11
191.607	-39.76
191.826	-33.62
192.045	-7
192.265	56.49
192.484	60.59
192.704	-11.09
192.923	-23.38
193.142	48.3
193.362	13.48
193.581	17.58
193.8	50.35
194.02	46.25
194.239	-15.19
194.458	56.49
194.678	40.11
194.897	93.35
195.116	31.91
195.335	9.39
195.555	36.01
195.774	-9.05
195.993	46.25
196.212	19.63
196.432	-23.38
196.651	-25.43
196.87	-0.85
197.089	40.11
197.308	5.29
197.528	-9.05
197.747	-70.48
197.966	85.16
198.185	17.58
198.404	-9.05
198.623	-0.85
198.842	128.17
199.062	29.87
199.281	87.21
199.5	29.87
199.719	-64.34
199.938	46.25
200.157	87.21
200.376	58.54
200.595	7.34
200.814	1.19
201.033	23.72
201.252	11.43
201.471	38.06
201.69	23.72
201.909	-7
202.128	-27.48
202.347	3.24
202.566	-23.38
202.785	79.02
203.004	91.31
203.223	66.73
203.442	-15.19
203.661	29.87
203.879	-27.48
204.098	29.87
204.317	68.78
204.536	109.74
204.755	-7
204.974	81.07
205.193	79.02
205.411	81.07
205.63	44.2
205.849	31.91
206.068	-41.81
206.287	-0.85
206.505	5.29
206.724	79.02
206.943	7.34
207.162	52.39
207.381	25.77
207.599	-29.52
207.818	58.54
208.037	81.07
208.255	25.77
208.474	-39.76
208.693	109.74
208.911	19.63
209.13	46.25
209.349	72.87
209.567	-9.05
209.786	-27.48
210.005	29.87
210.223	58.54
210.442	-15.19
210.661	48.3
210.879	-47.96
211.098	60.59
211.316	31.91
211.535	9.39
211.753	72.87
211.972	62.63
212.191	-7
212.409	11.43
212.628	50.35
212.846	21.67
213.065	-27.48
213.283	50.35
213.502	-13.14
213.72	11.43
213.938	48.3
214.157	27.82
214.375	15.53
214.594	33.96
214.812	70.83
215.031	-105.3
215.249	68.78
215.467	15.53
215.686	36.01
215.904	33.96
216.122	44.2
216.341	40.11
216.559	1.19
216.778	60.59
216.996	-54.1
217.214	64.68
217.432	60.59
217.651	-19.29
217.869	29.87
218.087	31.91
218.306	11.43
218.524	23.72
218.742	-13.14
218.96	99.5
219.179	15.53
219.397	-35.67
219.615	62.63
219.833	11.43
220.051	36.01
220.27	23.72
220.488	15.53
220.706	-11.09
220.924	21.67
221.142	36.01
221.36	-21.33
221.578	11.43
221.796	7.34
222.015	27.82
222.233	-33.62
222.451	95.4
222.669	7.34
222.887	11.43
223.105	-7
223.323	54.44
223.541	91.31
223.759	5.29
223.977	5.29
224.195	1.19
224.413	74.92
224.631	29.87
224.849	-54.1
225.067	70.83
225.285	60.59
225.503	27.82
225.721	74.92
225.939	23.72
226.157	-2.9
226.375	64.68
226.592	60.59
226.81	15.53
227.028	-9.05
227.246	87.21
227.464	52.39
227.682	40.11
227.9	11.43
228.117	-21.33
228.335	48.3
228.553	-27.48
228.771	89.26
228.989	-0.85
229.206	48.3
229.424	9.39
229.642	87.21
229.86	7.34
230.077	11.43
230.295	-21.33
230.513	19.63
230.731	87.21
230.948	-4.95
231.166	72.87
231.384	-15.19
231.601	48.3
231.819	-0.85
232.037	31.91
232.254	-11.09
232.472	79.02
232.689	23.72
232.907	72.87
233.125	-7
233.342	68.78
233.56	-7
233.777	-4.95
233.995	-13.14
234.213	29.87
234.43	33.96
234.648	23.72
234.865	11.43
235.083	7.34
235.3	15.53
235.518	33.96
235.735	31.91
235.953	31.91
236.17	7.34
236.388	5.29
236.605	-19.29
236.822	58.54
237.04	36.01
237.257	-25.43
237.475	46.25
237.692	38.06
237.909	-2.9
238.127	60.59
238.344	29.87
238.562	56.49
238.779	25.77
238.996	-74.58
239.214	58.54
239.431	56.49
239.648	-23.38
239.865	31.91
240.083	58.54
240.3	3.24
240.517	36.01
240.735	-19.29
240.952	107.69
241.169	44.2
241.386	54.44
241.603	38.06
241.821	93.35
242.038	15.53
242.255	-13.14
242.472	5.29
242.689	68.78
242.907	46.25
243.124	-7
243.341	42.15
243.558	-52.05
243.775	17.58
243.992	-80.72
244.209	-19.29
244.426	83.11
244.643	66.73
244.86	-35.67
245.078	50.35
245.295	27.82
245.512	31.91
245.729	-37.72
245.946	31.91
246.163	-0.85
246.38	-39.76
246.597	-33.62
246.814	17.58
247.031	-13.14
247.248	-17.24
247.464	60.59
247.681	-35.67
247.898	27.82
248.115	23.72
248.332	33.96
248.549	21.67
248.766	76.97
248.983	79.02
249.2	42.15
249.417	56.49
249.633	31.91
249.85	76.97
250.067	44.2
250.284	58.54
250.501	7.34
250.717	68.78
250.934	-7
251.151	62.63
251.368	113.83
251.585	40.11
251.801	-17.24
252.018	-0.85
252.235	33.96
252.451	40.11
252.668	-37.72
252.885	-13.14
253.102	70.83
253.318	13.48
253.535	23.72
253.752	70.83
253.968	3.24
254.185	-13.14
254.401	-17.24
254.618	-33.62
254.835	36.01
255.051	-7
255.268	-13.14
255.484	38.06
255.701	48.3
255.917	66.73
256.134	1.19
256.351	19.63
256.567	33.96
256.784	42.15
257	27.82
257.217	-13.14
257.433	31.91
257.65	72.87
257.866	50.35
258.082	-84.82
258.299	-23.38
258.515	21.67
258.732	79.02
258.948	72.87
259.165	3.24
259.381	-17.24
259.597	17.58
259.814	60.59
260.03	29.87
260.246	31.91
260.463	79.02
260.679	9.39
260.895	7.34
261.112	36.01
261.328	52.39
261.544	36.01
261.761	105.64
261.977	9.39
262.193	15.53
262.409	74.92
262.626	9.39
262.842	40.11
263.058	50.35
263.274	1.19
263.49	58.54
263.707	21.67
263.923	7.34
264.139	19.63
264.355	31.91
264.571	93.35
264.787	36.01
265.004	44.2
265.22	23.72
265.436	-37.72
265.652	31.91
265.868	83.11
266.084	-19.29
266.3	29.87
266.516	-2.9
266.732	58.54
266.948	79.02
267.164	-25.43
267.38	36.01
267.596	27.82
267.812	33.96
268.028	-0.85
268.244	-23.38
268.46	19.63
268.676	-15.19
268.892	130.22
269.108	-31.57
269.324	36.01
269.54	46.25
269.756	1.19
269.972	-13.14
270.188	23.72
270.403	50.35
270.619	25.77
270.835	19.63
271.051	19.63
271.267	9.39
271.483	19.63
271.698	85.16
271.914	36.01
272.13	3.24
272.346	-9.05
272.562	48.3
272.777	89.26
272.993	23.72
273.209	11.43
273.425	13.48
273.64	36.01
273.856	23.72
274.072	62.63
274.287	48.3
274.503	38.06
274.719	33.96
274.934	31.91
275.15	-62.29
275.366	40.11
275.581	-74.58
275.797	7.34
276.012	25.77
276.228	19.63
276.444	87.21
276.659	1.19
276.875	76.97
277.09	60.59
277.306	9.39
277.521	58.54
277.737	9.39
277.952	87.21
278.168	46.25
278.383	7.34
278.599	25.77
278.814	54.44
279.03	13.48
279.245	15.53
279.461	74.92
279.676	48.3
279.892	-11.09
280.107	-0.85
280.322	13.48
280.538	-19.29
280.753	5.29
280.969	64.68
281.184	-66.39
281.399	27.82
281.615	27.82
281.83	74.92
282.045	31.91
282.26	25.77
282.476	-37.72
282.691	124.07
282.906	-27.48
283.122	21.67
283.337	-19.29
283.552	29.87
283.767	21.67
283.983	42.15
284.198	17.58
284.413	76.97
284.628	76.97
284.843	70.83
285.058	-64.34
285.274	-27.48
285.489	52.39
285.704	29.87
285.919	74.92
286.134	89.26
286.349	68.78
286.564	7.34
286.779	42.15
286.995	27.82
287.21	-11.09
287.425	42.15
287.64	36.01
287.855	3.24
288.07	44.2
288.285	52.39
288.5	13.48
288.715	-33.62
288.93	23.72
289.145	50.35
289.36	64.68
289.575	44.2
289.79	91.31
290.004	21.67
290.219	-21.33
290.434	-15.19
290.649	-11.09
290.864	13.48
291.079	11.43
291.294	-58.2
291.509	89.26
291.724	3.24
291.938	-39.76
292.153	72.87
292.368	33.96
292.583	56.49
292.798	-25.43
293.012	72.87
293.227	81.07
293.442	33.96
293.657	58.54
293.871	31.91
294.086	-47.96
294.301	48.3
294.516	-15.19
294.73	1.19
294.945	-47.96
295.16	56.49
295.374	56.49
295.589	40.11
295.804	9.39
296.018	56.49
296.233	1.19
296.447	40.11
296.662	3.24
296.877	17.58
297.091	113.83
297.306	29.87
297.52	27.82
297.735	-17.24
297.949	-62.29
298.164	-9.05
298.378	44.2
298.593	-35.67
298.807	-21.33
299.022	70.83
299.236	64.68
299.451	42.15
299.665	44.2
299.88	7.34
300.094	-13.14
300.309	46.25
300.523	46.25
300.737	76.97
300.952	109.74
301.166	23.72
301.381	48.3
301.595	91.31
301.809	-29.52
302.024	101.55
302.238	72.87
302.452	9.39
302.667	-7
302.881	72.87
303.095	25.77
303.309	-9.05
303.524	7.34
303.738	11.43
303.952	48.3
304.166	111.78
304.381	-41.81
304.595	64.68
304.809	-19.29
305.023	119.98
305.237	27.82
305.452	1.19
305.666	36.01
305.88	91.31
306.094	13.48
306.308	38.06
306.522	31.91
306.736	87.21
306.95	13.48
307.164	-33.62
307.379	-17.24
307.593	31.91
307.807	15.53
308.021	97.45
308.235	70.83
308.449	-33.62
308.663	-54.1
308.877	81.07
309.091	29.87
309.305	38.06
309.519	-47.96
309.733	97.45
309.947	-4.95
310.161	52.39
310.374	81.07
310.588	70.83
310.802	-37.72
311.016	42.15
311.23	74.92
311.444	11.43
311.658	-0.85
311.872	48.3
312.085	95.4
312.299	5.29
312.513	76.97
312.727	-9.05
312.941	1.19
313.154	29.87
313.368	46.25
313.582	-17.24
313.796	44.2
314.009	-11.09
314.223	91.31
314.437	119.98
314.651	11.43
314.864	3.24
315.078	52.39
315.292	-17.24
315.505	-11.09
315.719	48.3
315.933	58.54
316.146	-25.43
316.36	21.67
316.573	-2.9
316.787	50.35
317.001	64.68
317.214	31.91
317.428	-33.62
317.641	19.63
317.855	58.54
318.068	-37.72
318.282	29.87
318.495	130.22
318.709	33.96
318.922	-11.09
319.136	-50
319.349	19.63
319.563	19.63
319.776	11.43
319.99	3.24
320.203	-21.33
320.417	-52.05
320.63	-11.09
320.843	46.25
321.057	111.78
321.27	25.77
321.483	42.15
321.697	33.96
321.91	9.39
322.124	33.96
322.337	11.43
322.55	27.82
322.763	-39.76
322.977	-4.95
323.19	17.58
323.403	42.15
323.617	38.06
323.83	66.73
324.043	33.96
324.256	40.11
324.469	-78.68
324.683	81.07
324.896	-23.38
325.109	54.44
325.322	-31.57
325.535	52.39
325.748	36.01
325.962	40.11
326.175	115.88
326.388	-0.85
326.601	-9.05
326.814	33.96
327.027	50.35
327.24	107.69
327.453	13.48
327.666	-2.9
327.879	3.24
328.092	56.49
328.305	5.29
328.518	1.19
328.731	-29.52
328.944	58.54
329.157	27.82
329.37	97.45
329.583	-2.9
329.796	23.72
330.009	-47.96
330.222	27.82
330.435	3.24
330.648	48.3
330.861	31.91
331.073	62.63
331.286	91.31
331.499	66.73
331.712	5.29
331.925	25.77
332.138	40.11
332.35	42.15
332.563	5.29
332.776	87.21
332.989	21.67
333.202	33.96
333.414	27.82
333.627	23.72
333.84	-0.85
334.053	122.02
334.265	5.29
334.478	-35.67
334.691	89.26
334.903	40.11
335.116	-27.48
335.329	23.72
335.541	29.87
335.754	79.02
335.966	62.63
336.179	-7
336.392	-19.29
336.604	-7
336.817	15.53
337.029	107.69
337.242	99.5
337.454	31.91
337.667	33.96
337.88	52.39
338.092	21.67
338.305	58.54
338.517	13.48
338.729	44.2
338.942	-13.14
339.154	-0.85
339.367	79.02
339.579	23.72
339.792	68.78
340.004	19.63
340.217	-19.29
340.429	-37.72
340.641	7.34
340.854	52.39
341.066	-56.15
341.278	-21.33
341.491	50.35
341.703	25.77
341.915	-43.86
342.128	44.2
342.34	58.54
342.552	5.29
342.764	19.63
342.977	48.3
343.189	42.15
343.401	-0.85
343.613	-13.14
343.826	50.35
344.038	40.11
344.25	11.43
344.462	-31.57
344.674	64.68
344.886	27.82
345.099	23.72
345.311	5.29
345.523	83.11
345.735	27.82
345.947	36.01
346.159	19.63
346.371	7.34
346.583	-2.9
346.795	25.77
347.007	42.15
347.219	79.02
347.431	3.24
347.643	27.82
347.855	105.64
348.067	62.63
348.279	54.44
348.491	101.55
348.703	-13.14
348.915	54.44
349.127	1.19
349.339	-0.85
349.551	79.02
349.763	87.21
349.975	31.91
350.187	56.49
350.399	64.68
350.61	76.97
350.822	23.72
351.034	70.83
351.246	-9.05
351.458	83.11
351.669	15.53
351.881	74.92
352.093	33.96
352.305	81.07
352.517	126.12
352.728	21.67
352.94	3.24
353.152	50.35
353.363	33.96
353.575	5.29
353.787	3.24
353.999	36.01
354.21	46.25
354.422	72.87
354.633	-21.33
354.845	76.97
355.057	21.67
355.268	105.64
355.48	-50
355.692	25.77
355.903	31.91
356.115	130.22
356.326	101.55
356.538	113.83
356.749	44.2
356.961	76.97
357.172	29.87
357.384	44.2
357.595	40.11
357.807	48.3
358.018	-41.81
358.23	36.01
358.441	54.44
358.653	21.67
358.864	-15.19
359.075	13.48
359.287	93.35
359.498	19.63
359.709	19.63
359.921	60.59
360.132	60.59
360.344	52.39
360.555	40.11
360.766	46.25
360.977	5.29
361.189	40.11
361.4	9.39
361.611	74.92
361.823	68.78
362.034	33.96
362.245	-25.43
362.456	38.06
362.667	44.2
362.879	23.72
363.09	-25.43
363.301	83.11
363.512	62.63
363.723	31.91
363.935	44.2
364.146	87.21
364.357	54.44
364.568	91.31
364.779	72.87
364.99	70.83
365.201	70.83
365.412	70.83
365.623	11.43
365.834	76.97
366.045	-0.85
366.256	33.96
366.467	38.06
366.678	7.34
366.889	15.53
367.1	87.21
367.311	23.72
367.522	31.91
367.733	130.22
367.944	56.49
368.155	62.63
368.366	5.29
368.577	68.78
368.788	89.26
368.999	-43.86
369.209	-31.57
369.42	111.78
369.631	103.59
369.842	1.19
370.053	66.73
370.264	54.44
370.474	124.07
370.685	89.26
370.896	42.15
371.107	42.15
371.317	42.15
371.528	52.39
371.739	46.25
371.95	-7
372.16	85.16
372.371	-2.9
372.582	66.73
372.792	3.24
373.003	17.58
373.214	-27.48
373.424	113.83
373.635	50.35
373.846	81.07
374.056	-0.85
374.267	1.19
374.477	-33.62
374.688	101.55
374.898	5.29
375.109	76.97
375.319	76.97
375.53	68.78
375.74	21.67
375.951	-76.63
376.161	60.59
376.372	72.87
376.582	31.91
376.793	50.35
377.003	9.39
377.214	87.21
377.424	31.91
377.635	126.12
377.845	13.48
378.055	158.89
378.266	25.77
378.476	-7
378.686	31.91
378.897	-0.85
379.107	40.11
379.317	70.83
379.528	68.78
379.738	42.15
379.948	52.39
380.158	60.59
380.369	54.44
380.579	122.02
380.789	130.22
380.999	52.39
381.21	50.35
381.42	72.87
381.63	29.87
381.84	66.73
382.05	-9.05
382.261	56.49
382.471	42.15
382.681	36.01
382.891	122.02
383.101	54.44
383.311	-50
383.521	101.55
383.731	136.36
383.941	91.31
384.151	70.83
384.361	83.11
384.571	36.01
384.781	58.54
384.991	58.54
385.201	3.24
385.411	42.15
385.621	89.26
385.831	87.21
386.041	74.92
386.251	21.67
386.461	52.39
386.671	33.96
386.881	126.12
387.091	91.31
387.301	97.45
387.511	15.53
387.72	23.72
387.93	93.35
388.14	19.63
388.35	46.25
388.56	81.07
388.769	40.11
388.979	40.11
389.189	17.58
389.399	83.11
389.609	15.53
389.818	25.77
390.028	48.3
390.238	76.97
390.447	68.78
390.657	70.83
390.867	38.06
391.076	124.07
391.286	124.07
391.496	36.01
391.705	76.97
391.915	126.12
392.125	58.54
392.334	44.2
392.544	44.2
392.753	76.97
392.963	23.72
393.172	36.01
393.382	81.07
393.591	105.64
393.801	66.73
394.01	89.26
394.22	134.31
394.429	25.77
394.639	60.59
394.848	19.63
395.058	101.55
395.267	111.78
395.477	54.44
395.686	50.35
395.895	107.69
396.105	124.07
396.314	140.46
396.524	50.35
396.733	81.07
396.942	70.83
397.152	-0.85
397.361	113.83
397.57	54.44
397.78	128.17
397.989	31.91
398.198	64.68
398.407	95.4
398.617	91.31
398.826	107.69
399.035	134.31
399.244	50.35
399.453	134.31
399.663	130.22
399.872	81.07
400.081	111.78
400.29	144.55
400.499	111.78
400.708	54.44
400.917	76.97
401.127	60.59
401.336	44.2
401.545	62.63
401.754	79.02
401.963	179.37
402.172	91.31
402.381	107.69
402.59	165.03
402.799	44.2
403.008	89.26
403.217	142.5
403.426	72.87
403.635	76.97
403.844	124.07
404.053	81.07
404.262	93.35
404.471	162.98
404.68	50.35
404.888	154.79
405.097	25.77
405.306	126.12
405.515	115.88
405.724	99.5
405.933	66.73
406.142	119.98
406.35	165.03
406.559	83.11
406.768	136.36
406.977	142.5
407.185	162.98
407.394	132.26
407.603	181.42
407.812	226.47
408.02	132.26
408.229	169.13
408.438	228.52
408.646	201.9
408.855	269.48
409.064	132.26
409.272	226.47
409.481	230.57
409.69	179.37
409.898	195.75
410.107	203.94
410.315	222.38
410.524	244.9
410.733	244.9
410.941	320.68
411.15	312.49
411.358	255.14
411.567	302.25
411.775	335.01
411.984	310.44
412.192	394.4
412.401	306.34
412.609	373.92
412.818	367.78
413.026	371.88
413.234	343.21
413.443	394.4
413.651	439.46
413.86	404.64
414.068	443.56
414.276	412.84
414.485	498.85
414.693	496.8
414.901	464.04
415.11	556.19
415.318	529.57
415.526	572.58
415.734	543.91
415.943	584.87
416.151	674.98
416.359	588.96
416.567	703.65
416.776	709.79
416.984	670.88
417.192	724.13
417.4	781.47
417.608	664.74
417.817	756.9
418.025	765.09
418.233	808.09
418.441	838.81
418.649	969.88
418.857	953.5
419.065	1100.95
419.273	924.83
419.481	937.12
419.689	1045.66
419.897	1111.19
420.105	1193.11
420.313	1215.64
420.521	1365.14
420.729	1199.26
420.937	1219.74
421.145	1293.46
421.353	1418.39
421.561	1420.44
421.769	1430.68
421.977	1541.27
422.185	1526.93
422.393	1563.79
422.601	1676.43
422.809	1584.27
423.017	1617.04
423.224	1756.3
423.432	1887.37
423.64	1856.65
423.848	2059.4
424.056	2045.07
424.263	2106.51
424.471	2126.99
424.679	2133.13
424.887	2358.41
425.094	2354.31
425.302	2278.54
425.51	2495.62
425.718	2550.92
425.925	2571.4
426.133	2657.41
426.341	2872.45
426.548	2940.03
426.756	2915.45
426.964	2921.6
427.171	3069.05
427.379	3261.56
427.586	3304.57
427.794	3277.94
428.001	3505.27
428.209	3429.49
428.417	3542.13
428.624	3916.91
428.832	3880.05
429.039	3865.71
429.247	3882.1
429.454	4152.43
429.662	4660.32
429.869	4308.07
430.076	4545.64
430.284	4422.76
430.491	4555.88
430.699	4934.75
430.906	4709.47
431.114	4875.36
431.321	5102.68
431.528	5188.7
431.736	5661.78
431.943	5848.15
432.15	5690.45
432.358	5741.65
432.565	6108.24
432.772	5909.58
432.979	6161.48
433.187	6341.71
433.394	6491.21
433.601	6859.84
433.808	7033.92
434.016	6851.65
434.223	7021.63
434.43	7711.8
434.637	7533.62
434.844	7949.36
435.052	8127.53
435.259	8002.61
435.466	8041.52
435.673	8021.04
435.88	8494.12
436.087	9002.02
436.294	8928.29
436.501	8858.66
436.708	9067.55
436.915	9266.21
437.122	9657.37
437.329	9614.36
437.537	10173.46
437.743	10157.07
437.95	10310.67
438.157	10589.19
438.364	10716.17
438.571	11021.31
438.778	11156.48
438.985	11914.23
439.192	11738.1
439.399	12024.82
439.606	11793.4
439.813	12295.15
440.02	12970.98
440.227	12880.87
440.433	12858.34
440.64	13554.65
440.847	13095.91
441.054	13493.21
441.261	14472.14
441.467	14279.63
441.674	14441.42
441.881	14975.94
442.088	14783.43
442.294	14754.76
442.501	15580.09
442.708	15786.94
442.914	16147.38
443.121	16950.18
443.328	16350.13
443.534	17773.47
443.741	17071.01
443.948	16892.84
444.154	18215.83
444.361	17922.97
444.568	18144.15
444.774	17937.3
444.981	18434.96
445.187	18883.47
445.394	19749.76
445.6	19673.98
445.807	21490.53
446.013	20554.61
446.22	20865.9
446.426	21592.93
446.633	21816.16
446.839	22491.99
447.046	21564.26
447.252	22872.91
447.459	22930.25
447.665	22651.73
447.871	23749.44
448.078	25142.06
448.284	23436.1
448.491	24437.56
448.697	25285.42
448.903	25633.57
449.11	26182.43
449.316	25574.18
449.522	25983.77
449.728	26567.45
449.935	26825.49
450.141	27038.48
450.347	27525.89
450.553	26817.3
450.76	26942.22
450.966	27718.4
451.172	27548.42
451.378	28433.14
451.584	27837.19
451.791	28611.32
451.997	28642.04
452.203	28887.79
452.409	28910.32
452.615	28773.11
452.821	27835.14
453.027	27462.41
453.233	28992.24
453.44	27435.78
453.646	27882.24
453.852	28158.72
454.058	28625.65
454.264	27468.55
454.47	28402.43
454.676	27826.95
454.882	28701.43
455.088	26061.6
455.294	26565.4
455.5	27185.93
455.705	26843.92
455.911	26112.8
456.117	25955.1
456.323	25477.93
456.529	23778.11
456.735	24927.02
456.941	24357.69
457.147	24118.07
457.352	23057.23
457.558	23128.91
457.764	23003.98
457.97	22395.73
458.176	22182.74
458.381	22195.03
458.587	21492.58
458.793	21277.54
458.999	19958.65
459.204	21310.31
459.41	20898.67
459.616	19561.34
459.821	19633.02
460.027	19782.52
460.233	18711.44
460.438	18152.34
460.644	18203.54
460.85	17617.82
461.055	17353.63
461.261	17109.93
461.466	15784.89
461.672	15588.28
461.878	16358.32
462.083	15629.24
462.289	15078.34
462.494	14973.89
462.7	14412.75
462.905	14169.04
463.111	14314.45
463.316	14439.37
463.522	14201.81
463.727	14175.19
463.932	14283.73
464.138	13974.49
464.343	14087.12
464.549	13671.39
464.754	14310.35
464.959	13845.46
465.165	13872.09
465.37	13464.54
465.575	12891.11
465.781	13568.99
465.986	13566.94
466.191	12925.93
466.397	13034.47
466.602	12422.13
466.807	12848.1
467.012	12698.6
467.218	12651.5
467.423	12526.57
467.628	12676.07
467.833	13110.24
468.038	12749.8
468.244	12422.13
