Data from USB4F104151__57__12-27-37-572.txt Node

Date: Fri Mar 14 12:27:37 EDT 2025
User: louis
Spectrometer: USB4F10415
Trigger mode: 4
Integration Time (sec): 2.000000E-2
Scans to average: 1
Electric dark correction enabled: true
Nonlinearity correction enabled: false
Boxcar width: 0
XAxis mode: Wavelengths
Number of Pixels in Spectrum: 3648
>>>>>Begin Spectral Data<<<<<
178.204	-86.87
178.424	-86.87
178.644	-86.87
178.864	-37.72
179.084	-50
179.304	-35.67
179.524	21.67
179.744	7.34
179.964	-13.14
180.184	13.48
180.404	83.11
180.624	-50
180.844	72.87
181.064	-64.34
181.283	15.53
181.503	-13.14
181.723	-37.72
181.943	38.06
182.163	66.73
182.383	-11.09
182.602	-13.14
182.822	17.58
183.042	52.39
183.262	3.24
183.482	60.59
183.701	-7
183.921	48.3
184.141	50.35
184.361	-23.38
184.58	15.53
184.8	50.35
185.02	5.29
185.239	7.34
185.459	21.67
185.679	52.39
185.898	13.48
186.118	9.39
186.338	-37.72
186.557	40.11
186.777	-23.38
186.997	54.44
187.216	3.24
187.436	95.4
187.655	27.82
187.875	70.83
188.095	17.58
188.314	7.34
188.534	1.19
188.753	66.73
188.973	17.58
189.192	76.97
189.412	15.53
189.631	50.35
189.851	-21.33
190.07	-31.57
190.29	-15.19
190.509	3.24
190.729	21.67
190.948	11.43
191.168	60.59
191.387	-25.43
191.607	33.96
191.826	48.3
192.045	46.25
192.265	31.91
192.484	-0.85
192.704	-4.95
192.923	-13.14
193.142	66.73
193.362	23.72
193.581	87.21
193.8	-43.86
194.02	-64.34
194.239	7.34
194.458	-9.05
194.678	66.73
194.897	74.92
195.116	56.49
195.335	48.3
195.555	-25.43
195.774	54.44
195.993	42.15
196.212	-97.11
196.432	40.11
196.651	62.63
196.87	-31.57
197.089	60.59
197.308	72.87
197.528	74.92
197.747	29.87
197.966	3.24
198.185	31.91
198.404	40.11
198.623	81.07
198.842	70.83
199.062	19.63
199.281	5.29
199.5	21.67
199.719	62.63
199.938	52.39
200.157	31.91
200.376	-29.52
200.595	83.11
200.814	-17.24
201.033	33.96
201.252	48.3
201.471	-11.09
201.69	99.5
201.909	19.63
202.128	60.59
202.347	48.3
202.566	83.11
202.785	-9.05
203.004	1.19
203.223	68.78
203.442	-7
203.661	-23.38
203.879	17.58
204.098	66.73
204.317	52.39
204.536	29.87
204.755	50.35
204.974	13.48
205.193	-25.43
205.411	15.53
205.63	91.31
205.849	44.2
206.068	40.11
206.287	33.96
206.505	74.92
206.724	56.49
206.943	11.43
207.162	17.58
207.381	68.78
207.599	-19.29
207.818	36.01
208.037	-45.91
208.255	33.96
208.474	60.59
208.693	-31.57
208.911	60.59
209.13	50.35
209.349	76.97
209.567	23.72
209.786	64.68
210.005	44.2
210.223	-33.62
210.442	23.72
210.661	62.63
210.879	76.97
211.098	56.49
211.316	25.77
211.535	-21.33
211.753	17.58
211.972	97.45
212.191	5.29
212.409	70.83
212.628	40.11
212.846	-4.95
213.065	58.54
213.283	146.6
213.502	70.83
213.72	31.91
213.938	25.77
214.157	11.43
214.375	58.54
214.594	27.82
214.812	27.82
215.031	89.26
215.249	5.29
215.467	19.63
215.686	72.87
215.904	44.2
216.122	13.48
216.341	99.5
216.559	33.96
216.778	42.15
216.996	-2.9
217.214	46.25
217.432	40.11
217.651	23.72
217.869	3.24
218.087	62.63
218.306	-23.38
218.524	-25.43
218.742	48.3
218.96	9.39
219.179	46.25
219.397	31.91
219.615	68.78
219.833	64.68
220.051	11.43
220.27	50.35
220.488	36.01
220.706	-0.85
220.924	74.92
221.142	13.48
221.36	68.78
221.578	27.82
221.796	72.87
222.015	132.26
222.233	40.11
222.451	58.54
222.669	68.78
222.887	3.24
223.105	-4.95
223.323	17.58
223.541	-21.33
223.759	7.34
223.977	3.24
224.195	46.25
224.413	-31.57
224.631	46.25
224.849	72.87
225.067	-27.48
225.285	9.39
225.503	70.83
225.721	-13.14
225.939	76.97
226.157	-21.33
226.375	31.91
226.592	27.82
226.81	52.39
227.028	66.73
227.246	23.72
227.464	-15.19
227.682	132.26
227.9	46.25
228.117	42.15
228.335	29.87
228.553	101.55
228.771	97.45
228.989	44.2
229.206	38.06
229.424	48.3
229.642	48.3
229.86	70.83
230.077	52.39
230.295	-45.91
230.513	42.15
230.731	17.58
230.948	9.39
231.166	72.87
231.384	-4.95
231.601	-15.19
231.819	50.35
232.037	56.49
232.254	9.39
232.472	33.96
232.689	-39.76
232.907	-31.57
233.125	13.48
233.342	3.24
233.56	50.35
233.777	25.77
233.995	27.82
234.213	144.55
234.43	109.74
234.648	36.01
234.865	76.97
235.083	81.07
235.3	25.77
235.518	64.68
235.735	27.82
235.953	56.49
236.17	-45.91
236.388	11.43
236.605	50.35
236.822	17.58
237.04	19.63
237.257	66.73
237.475	25.77
237.692	15.53
237.909	-25.43
238.127	3.24
238.344	93.35
238.562	54.44
238.779	23.72
238.996	83.11
239.214	42.15
239.431	89.26
239.648	11.43
239.865	31.91
240.083	3.24
240.3	27.82
240.517	-15.19
240.735	48.3
240.952	-19.29
241.169	29.87
241.386	33.96
241.603	89.26
241.821	29.87
242.038	91.31
242.255	13.48
242.472	-17.24
242.689	66.73
242.907	62.63
243.124	25.77
243.341	23.72
243.558	40.11
243.775	36.01
243.992	56.49
244.209	5.29
244.426	25.77
244.643	76.97
244.86	50.35
245.078	95.4
245.295	11.43
245.512	48.3
245.729	-70.48
245.946	-39.76
246.163	33.96
246.38	-7
246.597	-15.19
246.814	-17.24
247.031	21.67
247.248	44.2
247.464	56.49
247.681	148.65
247.898	-54.1
248.115	42.15
248.332	27.82
248.549	29.87
248.766	-0.85
248.983	103.59
249.2	11.43
249.417	103.59
249.633	40.11
249.85	101.55
250.067	-9.05
250.284	40.11
250.501	128.17
250.717	83.11
250.934	-54.1
251.151	38.06
251.368	44.2
251.585	33.96
251.801	-37.72
252.018	5.29
252.235	9.39
252.451	-31.57
252.668	38.06
252.885	50.35
253.102	-11.09
253.318	64.68
253.535	42.15
253.752	1.19
253.968	5.29
254.185	21.67
254.401	23.72
254.618	33.96
254.835	-39.76
255.051	56.49
255.268	-41.81
255.484	54.44
255.701	42.15
255.917	70.83
256.134	3.24
256.351	58.54
256.567	-35.67
256.784	46.25
257	-13.14
257.217	23.72
257.433	52.39
257.65	29.87
257.866	76.97
258.082	-93.01
258.299	44.2
258.515	40.11
258.732	50.35
258.948	83.11
259.165	29.87
259.381	40.11
259.597	3.24
259.814	15.53
260.03	19.63
260.246	7.34
260.463	126.12
260.679	42.15
260.895	40.11
261.112	31.91
261.328	50.35
261.544	54.44
261.761	89.26
261.977	31.91
262.193	-11.09
262.409	81.07
262.626	42.15
262.842	17.58
263.058	50.35
263.274	126.12
263.49	-0.85
263.707	70.83
263.923	17.58
264.139	70.83
264.355	54.44
264.571	62.63
264.787	52.39
265.004	-0.85
265.22	3.24
265.436	132.26
265.652	-13.14
265.868	33.96
266.084	-4.95
266.3	3.24
266.516	-35.67
266.732	42.15
266.948	-43.86
267.164	-11.09
267.38	-4.95
267.596	-45.91
267.812	31.91
268.028	79.02
268.244	66.73
268.46	81.07
268.676	42.15
268.892	-11.09
269.108	-15.19
269.324	5.29
269.54	97.45
269.756	79.02
269.972	5.29
270.188	-0.85
270.403	3.24
270.619	79.02
270.835	-7
271.051	-0.85
271.267	1.19
271.483	50.35
271.698	38.06
271.914	7.34
272.13	19.63
272.346	40.11
272.562	5.29
272.777	103.59
272.993	1.19
273.209	-33.62
273.425	17.58
273.64	21.67
273.856	5.29
274.072	93.35
274.287	13.48
274.503	89.26
274.719	48.3
274.934	11.43
275.15	9.39
275.366	76.97
275.581	52.39
275.797	23.72
276.012	36.01
276.228	7.34
276.444	-33.62
276.659	62.63
276.875	-2.9
277.09	99.5
277.306	1.19
277.521	54.44
277.737	36.01
277.952	33.96
278.168	87.21
278.383	60.59
278.599	17.58
278.814	93.35
279.03	56.49
279.245	83.11
279.461	-2.9
279.676	36.01
279.892	52.39
280.107	46.25
280.322	-31.57
280.538	-15.19
280.753	42.15
280.969	38.06
281.184	-52.05
281.399	56.49
281.615	81.07
281.83	1.19
282.045	-56.15
282.26	60.59
282.476	19.63
282.691	93.35
282.906	83.11
283.122	107.69
283.337	21.67
283.552	11.43
283.767	-17.24
283.983	23.72
284.198	5.29
284.413	76.97
284.628	31.91
284.843	74.92
285.058	19.63
285.274	11.43
285.489	19.63
285.704	60.59
285.919	-15.19
286.134	-15.19
286.349	38.06
286.564	3.24
286.779	66.73
286.995	3.24
287.21	-9.05
287.425	46.25
287.64	76.97
287.855	46.25
288.07	-31.57
288.285	68.78
288.5	87.21
288.715	-37.72
288.93	-19.29
289.145	62.63
289.36	-60.24
289.575	11.43
289.79	113.83
290.004	23.72
290.219	70.83
290.434	15.53
290.649	-2.9
290.864	-13.14
291.079	-23.38
291.294	140.46
291.509	83.11
291.724	60.59
291.938	70.83
292.153	-0.85
292.368	-31.57
292.583	-11.09
292.798	79.02
293.012	27.82
293.227	31.91
293.442	-15.19
293.657	83.11
293.871	31.91
294.086	42.15
294.301	31.91
294.516	38.06
294.73	60.59
294.945	-15.19
295.16	-4.95
295.374	60.59
295.589	68.78
295.804	17.58
296.018	40.11
296.233	-23.38
296.447	40.11
296.662	-7
296.877	17.58
297.091	23.72
297.306	-7
297.52	25.77
297.735	-11.09
297.949	38.06
298.164	64.68
298.378	-0.85
298.593	-33.62
298.807	29.87
299.022	-19.29
299.236	54.44
299.451	72.87
299.665	-19.29
299.88	17.58
300.094	72.87
300.309	-35.67
300.523	60.59
300.737	33.96
300.952	19.63
301.166	74.92
301.381	21.67
301.595	68.78
301.809	-64.34
302.024	11.43
302.238	-37.72
302.452	81.07
302.667	56.49
302.881	132.26
303.095	50.35
303.309	-15.19
303.524	33.96
303.738	50.35
303.952	56.49
304.166	83.11
304.381	-21.33
304.595	46.25
304.809	-15.19
305.023	81.07
305.237	23.72
305.452	33.96
305.666	-4.95
305.88	56.49
306.094	130.22
306.308	27.82
306.522	89.26
306.736	56.49
306.95	68.78
307.164	42.15
307.379	1.19
307.593	36.01
307.807	83.11
308.021	91.31
308.235	19.63
308.449	33.96
308.663	-56.15
308.877	54.44
309.091	42.15
309.305	33.96
309.519	-2.9
309.733	44.2
309.947	46.25
310.161	25.77
310.374	25.77
310.588	81.07
310.802	1.19
311.016	27.82
311.23	-9.05
311.444	23.72
311.658	-27.48
311.872	97.45
312.085	91.31
312.299	25.77
312.513	50.35
312.727	7.34
312.941	-11.09
313.154	36.01
313.368	56.49
313.582	25.77
313.796	91.31
314.009	89.26
314.223	3.24
314.437	1.19
314.651	25.77
314.864	68.78
315.078	1.19
315.292	1.19
315.505	56.49
315.719	62.63
315.933	66.73
316.146	60.59
316.36	1.19
316.573	46.25
316.787	36.01
317.001	31.91
317.214	42.15
317.428	-4.95
317.641	-19.29
317.855	-2.9
318.068	54.44
318.282	101.55
318.495	33.96
318.709	-13.14
318.922	60.59
319.136	62.63
319.349	56.49
319.563	-2.9
319.776	-82.77
319.99	21.67
320.203	33.96
320.417	3.24
320.63	48.3
320.843	19.63
321.057	11.43
321.27	50.35
321.483	19.63
321.697	76.97
321.91	33.96
322.124	50.35
322.337	97.45
322.55	31.91
322.763	-7
322.977	17.58
323.19	5.29
323.403	25.77
323.617	31.91
323.83	42.15
324.043	60.59
324.256	-7
324.469	74.92
324.683	91.31
324.896	-35.67
325.109	50.35
325.322	40.11
325.535	103.59
325.748	17.58
325.962	31.91
326.175	66.73
326.388	44.2
326.601	85.16
326.814	13.48
327.027	38.06
327.24	154.79
327.453	3.24
327.666	60.59
327.879	119.98
328.092	40.11
328.305	3.24
328.518	79.02
328.731	5.29
328.944	89.26
329.157	3.24
329.37	-11.09
329.583	64.68
329.796	40.11
330.009	60.59
330.222	70.83
330.435	72.87
330.648	52.39
330.861	87.21
331.073	76.97
331.286	72.87
331.499	13.48
331.712	40.11
331.925	83.11
332.138	42.15
332.35	132.26
332.563	27.82
332.776	54.44
332.989	38.06
333.202	33.96
333.414	46.25
333.627	44.2
333.84	48.3
334.053	70.83
334.265	52.39
334.478	48.3
334.691	54.44
334.903	-31.57
335.116	-2.9
335.329	58.54
335.541	27.82
335.754	81.07
335.966	15.53
336.179	38.06
336.392	74.92
336.604	87.21
336.817	-15.19
337.029	56.49
337.242	-0.85
337.454	-23.38
337.667	-15.19
337.88	107.69
338.092	66.73
338.305	9.39
338.517	44.2
338.729	-23.38
338.942	54.44
339.154	5.29
339.367	66.73
339.579	134.31
339.792	76.97
340.004	89.26
340.217	17.58
340.429	40.11
340.641	13.48
340.854	107.69
341.066	-2.9
341.278	76.97
341.491	-15.19
341.703	19.63
341.915	3.24
342.128	58.54
342.34	19.63
342.552	33.96
342.764	52.39
342.977	83.11
343.189	11.43
343.401	70.83
343.613	29.87
343.826	13.48
344.038	56.49
344.25	1.19
344.462	-21.33
344.674	13.48
344.886	48.3
345.099	58.54
345.311	66.73
345.523	25.77
345.735	42.15
345.947	76.97
346.159	52.39
346.371	-23.38
346.583	17.58
346.795	17.58
347.007	-4.95
347.219	107.69
347.431	138.41
347.643	103.59
347.855	46.25
348.067	58.54
348.279	27.82
348.491	-21.33
348.703	101.55
348.915	46.25
349.127	89.26
349.339	-4.95
349.551	44.2
349.763	-29.52
349.975	27.82
350.187	52.39
350.399	25.77
350.61	46.25
350.822	85.16
351.034	38.06
351.246	48.3
351.458	68.78
351.669	36.01
351.881	-2.9
352.093	48.3
352.305	25.77
352.517	66.73
352.728	52.39
352.94	-9.05
353.152	27.82
353.363	42.15
353.575	99.5
353.787	91.31
353.999	46.25
354.21	60.59
354.422	31.91
354.633	42.15
354.845	11.43
355.057	33.96
355.268	-72.53
355.48	11.43
355.692	74.92
355.903	5.29
356.115	54.44
356.326	23.72
356.538	66.73
356.749	-39.76
356.961	79.02
357.172	5.29
357.384	23.72
357.595	52.39
357.807	58.54
358.018	27.82
358.23	25.77
358.441	60.59
358.653	17.58
358.864	46.25
359.075	40.11
359.287	42.15
359.498	119.98
359.709	40.11
359.921	-0.85
360.132	62.63
360.344	-7
360.555	1.19
360.766	38.06
360.977	79.02
361.189	105.64
361.4	60.59
361.611	31.91
361.823	33.96
362.034	58.54
362.245	-7
362.456	38.06
362.667	66.73
362.879	56.49
363.09	11.43
363.301	76.97
363.512	33.96
363.723	81.07
363.935	1.19
364.146	64.68
364.357	-41.81
364.568	144.55
364.779	-31.57
364.99	5.29
365.201	-33.62
365.412	87.21
365.623	21.67
365.834	29.87
366.045	15.53
366.256	38.06
366.467	93.35
366.678	152.74
366.889	48.3
367.1	111.78
367.311	48.3
367.522	1.19
367.733	95.4
367.944	40.11
368.155	19.63
368.366	54.44
368.577	42.15
368.788	25.77
368.999	23.72
369.209	89.26
369.42	74.92
369.631	50.35
369.842	64.68
370.053	40.11
370.264	-9.05
370.474	-2.9
370.685	76.97
370.896	31.91
371.107	126.12
371.317	31.91
371.528	3.24
371.739	48.3
371.95	64.68
372.16	48.3
372.371	-60.24
372.582	7.34
372.792	38.06
373.003	72.87
373.214	-4.95
373.424	68.78
373.635	15.53
373.846	48.3
374.056	29.87
374.267	38.06
374.477	-13.14
374.688	3.24
374.898	89.26
375.109	31.91
375.319	17.58
375.53	56.49
375.74	68.78
375.951	48.3
376.161	113.83
376.372	7.34
376.582	60.59
376.793	54.44
377.003	5.29
377.214	81.07
377.424	50.35
377.635	7.34
377.845	25.77
378.055	54.44
378.266	-0.85
378.476	109.74
378.686	83.11
378.897	64.68
379.107	48.3
379.317	52.39
379.528	89.26
379.738	81.07
379.948	48.3
380.158	19.63
380.369	36.01
380.579	136.36
380.789	23.72
380.999	66.73
381.21	93.35
381.42	5.29
381.63	72.87
381.84	-21.33
382.05	-29.52
382.261	33.96
382.471	101.55
382.681	40.11
382.891	42.15
383.101	54.44
383.311	60.59
383.521	124.07
383.731	87.21
383.941	66.73
384.151	27.82
384.361	117.93
384.571	36.01
384.781	48.3
384.991	181.42
385.201	109.74
385.411	40.11
385.621	25.77
385.831	107.69
386.041	50.35
386.251	93.35
386.461	70.83
386.671	93.35
386.881	81.07
387.091	113.83
387.301	48.3
387.511	27.82
387.72	91.31
387.93	74.92
388.14	66.73
388.35	46.25
388.56	54.44
388.769	50.35
388.979	-25.43
389.189	15.53
389.399	48.3
389.609	60.59
389.818	95.4
390.028	46.25
390.238	83.11
390.447	42.15
390.657	40.11
390.867	81.07
391.076	62.63
391.286	44.2
391.496	97.45
391.705	5.29
391.915	3.24
392.125	103.59
392.334	-29.52
392.544	50.35
392.753	87.21
392.963	44.2
393.172	79.02
393.382	7.34
393.591	52.39
393.801	48.3
394.01	85.16
394.22	132.26
394.429	15.53
394.639	72.87
394.848	68.78
395.058	111.78
395.267	50.35
395.477	29.87
395.686	101.55
395.895	52.39
396.105	113.83
396.314	101.55
396.524	44.2
396.733	179.37
396.942	107.69
397.152	33.96
397.361	72.87
397.57	38.06
397.78	31.91
397.989	220.33
398.198	160.94
398.407	128.17
398.617	150.7
398.826	56.49
399.035	148.65
399.244	95.4
399.453	70.83
399.663	93.35
399.872	83.11
400.081	68.78
400.29	148.65
400.499	25.77
400.708	81.07
400.917	122.02
401.127	70.83
401.336	101.55
401.545	167.08
401.754	132.26
401.963	142.5
402.172	83.11
402.381	105.64
402.59	126.12
402.799	134.31
403.008	72.87
403.217	107.69
403.426	134.31
403.635	93.35
403.844	70.83
404.053	58.54
404.262	97.45
404.471	130.22
404.68	152.74
404.888	144.55
405.097	115.88
405.306	142.5
405.515	175.27
405.724	113.83
405.933	124.07
406.142	197.8
406.35	152.74
406.559	210.09
406.768	167.08
406.977	154.79
407.185	165.03
407.394	160.94
407.603	171.18
407.812	171.18
408.02	234.66
408.229	263.33
408.438	130.22
408.646	238.76
408.855	277.67
409.064	220.33
409.272	187.56
409.481	246.95
409.69	236.71
409.898	255.14
410.107	244.9
410.315	318.63
410.524	296.1
410.733	302.25
410.941	249
411.15	249
411.358	355.49
411.567	380.07
411.775	318.63
411.984	429.22
412.192	359.59
412.401	402.6
412.609	412.84
412.818	531.62
413.026	470.18
413.234	507.04
413.443	468.13
413.651	515.23
413.86	447.65
414.068	511.14
414.276	562.34
414.485	566.43
414.693	603.3
414.901	584.87
415.11	629.92
415.318	631.97
415.526	681.12
415.734	666.78
415.943	674.98
416.151	820.38
416.359	722.08
416.567	777.37
416.776	818.33
416.984	849.05
417.192	908.44
417.4	793.76
417.608	842.91
417.817	971.93
418.025	1016.99
418.233	986.27
418.441	1094.81
418.649	1023.13
418.857	1168.54
419.065	1152.15
419.273	1131.67
419.481	1236.12
419.689	1272.98
419.897	1344.66
420.105	1320.09
420.313	1369.24
420.521	1428.63
420.729	1361.05
420.937	1565.84
421.145	1606.8
421.353	1688.72
421.561	1756.3
421.769	1793.17
421.977	1817.74
422.185	1866.89
422.393	1895.57
422.601	2045.07
422.809	2090.12
423.017	2067.6
423.224	2040.97
423.432	2131.08
423.64	2176.14
423.848	2448.52
424.056	2419.85
424.263	2450.57
424.471	2548.87
424.679	2602.11
424.887	2765.95
425.094	2808.96
425.302	2786.43
425.51	2956.41
425.718	3009.66
425.925	3091.58
426.133	3193.98
426.341	3431.54
426.548	3587.19
426.756	3507.32
426.964	3535.99
427.171	3798.13
427.379	3781.74
427.586	3822.7
427.794	4129.9
428.001	4162.67
428.209	4346.98
428.417	4248.68
428.624	4748.39
428.832	4641.89
429.039	4686.95
429.247	4549.73
429.454	5071.97
429.662	5293.15
429.869	5076.06
430.076	5243.99
430.284	5297.24
430.491	5504.09
430.699	5891.15
430.906	5829.71
431.114	5821.52
431.321	6145.1
431.528	6200.4
431.736	6507.59
431.943	6982.72
432.15	6798.4
432.358	6843.46
432.565	6988.86
432.772	7025.73
432.979	7629.88
433.187	7543.86
433.394	7633.97
433.601	8217.65
433.808	8356.91
434.016	8330.28
434.223	8672.29
434.43	8985.63
434.637	8881.19
434.844	9507.87
435.052	9733.14
435.259	9624.6
435.466	9647.13
435.673	9679.89
435.88	10175.5
436.087	10714.12
436.294	10701.83
436.501	10486.79
436.708	10513.42
436.915	11037.7
437.122	11506.68
437.329	11609.08
437.537	11969.52
437.743	12053.49
437.95	12061.68
438.157	12733.42
438.364	13116.39
438.571	13013.99
438.778	12964.84
438.985	14347.22
439.192	13874.13
439.399	14117.84
439.606	13882.33
439.813	14699.47
440.02	15666.11
440.227	15344.58
440.433	15064
440.64	15764.41
440.847	15471.55
441.054	16028.6
441.261	17056.68
441.467	16823.21
441.674	17259.43
441.881	17765.28
442.088	17765.28
442.294	17677.21
442.501	18076.57
442.708	18484.11
442.914	19229.57
443.121	20093.82
443.328	19417.99
443.534	20738.93
443.741	20132.73
443.948	20388.72
444.154	21394.28
444.361	21283.69
444.568	21699.42
444.774	21627.74
444.981	21617.5
445.187	22197.08
445.394	23487.3
445.6	22932.3
445.807	25156.39
446.013	24281.91
446.22	24730.42
446.426	25723.68
446.633	26077.98
446.839	27159.31
447.046	25725.73
447.252	26694.42
447.459	27263.75
447.665	26946.32
447.871	27955.97
448.078	29354.73
448.284	27917.06
448.491	28730.1
448.697	29928.16
448.903	30550.74
449.11	30374.62
449.316	29860.58
449.522	30358.24
449.728	31341.26
449.935	31789.77
450.141	31771.33
450.347	32322.24
450.553	31419.08
450.76	31611.59
450.966	32844.47
451.172	32645.82
451.378	32973.49
451.584	32703.16
451.791	33526.44
451.997	33284.78
452.203	34069.15
452.409	34034.34
452.615	33512.11
452.821	32592.57
453.027	31988.42
453.233	33845.93
453.44	32422.59
453.646	32807.61
453.852	32959.16
454.058	33596.07
454.264	32457.4
454.47	33061.55
454.676	32402.11
454.882	33440.43
455.088	30542.55
455.294	31218.38
455.5	31939.27
455.705	31990.47
455.911	30403.29
456.117	29815.52
456.323	30042.85
456.529	28183.29
456.735	29563.62
456.941	28474.1
457.147	27984.64
457.352	26895.12
457.558	27018
457.764	27290.38
457.97	26749.71
458.176	26137.37
458.381	25828.13
458.587	24832.82
458.793	24877.87
458.999	23092.04
459.204	25056.04
459.41	24488.76
459.616	22735.7
459.821	22840.14
460.027	22575.95
460.233	22332.25
460.438	21191.53
460.644	21680.99
460.85	20368.24
461.055	20265.85
461.261	20018.04
461.466	18422.67
461.672	18119.57
461.878	19407.75
462.083	17994.65
462.289	17834.91
462.494	17634.21
462.7	16735.15
462.905	16286.64
463.111	16700.33
463.316	16892.84
463.522	16688.04
463.727	16497.58
463.932	16565.17
464.138	16268.21
464.343	16223.16
464.549	16079.8
464.754	16419.76
464.959	16253.87
465.165	16167.86
465.37	15442.88
465.575	15047.62
465.781	15508.41
465.986	15899.58
466.191	15223.75
466.397	14875.59
466.602	14080.98
466.807	14752.71
467.012	14986.18
467.218	14820.3
467.423	14400.46
467.628	14584.78
467.833	15127.49
468.038	14623.69
468.244	14273.49
