Data from USB4F104151__80__12-27-52-811.txt Node

Date: Fri Mar 14 12:27:52 EDT 2025
User: louis
Spectrometer: USB4F10415
Trigger mode: 4
Integration Time (sec): 2.000000E-2
Scans to average: 1
Electric dark correction enabled: true
Nonlinearity correction enabled: false
Boxcar width: 0
XAxis mode: Wavelengths
Number of Pixels in Spectrum: 3648
>>>>>Begin Spectral Data<<<<<
178.204	-46.59
178.424	-46.59
178.644	-46.59
178.864	-93.69
179.084	-105.98
179.304	6.66
179.524	-7.68
179.744	43.52
179.964	-30.21
180.184	37.38
180.404	-22.02
180.624	2.56
180.844	-24.06
181.064	-83.45
181.283	33.28
181.503	20.99
181.723	23.04
181.943	55.81
182.163	45.57
182.383	43.52
182.602	25.09
182.822	23.04
183.042	66.05
183.262	66.05
183.482	16.9
183.701	8.7
183.921	8.7
184.141	-46.59
184.361	39.42
184.58	10.75
184.8	88.57
185.02	-28.16
185.239	27.14
185.459	78.33
185.679	12.8
185.898	59.9
186.118	31.23
186.338	57.86
186.557	0.51
186.777	-26.11
186.997	31.23
187.216	20.99
187.436	57.86
187.655	64
187.875	-17.92
188.095	41.47
188.314	57.86
188.534	82.43
188.753	39.42
188.973	57.86
189.192	-44.54
189.412	4.61
189.631	-5.63
189.851	-5.63
190.07	82.43
190.29	-112.13
190.509	-9.73
190.729	27.14
190.948	20.99
191.168	96.77
191.387	61.95
191.607	-28.16
191.826	18.94
192.045	25.09
192.265	72.19
192.484	43.52
192.704	16.9
192.923	39.42
193.142	27.14
193.362	72.19
193.581	57.86
193.8	35.33
194.02	55.81
194.239	-7.68
194.458	61.95
194.678	12.8
194.897	-26.11
195.116	2.56
195.335	68.09
195.555	37.38
195.774	4.61
195.993	-36.35
196.212	16.9
196.432	10.75
196.651	111.1
196.87	78.33
197.089	113.15
197.308	23.04
197.528	10.75
197.747	59.9
197.966	66.05
198.185	78.33
198.404	-5.63
198.623	88.57
198.842	-7.68
199.062	74.24
199.281	84.48
199.5	0.51
199.719	-19.97
199.938	4.61
200.157	115.2
200.376	16.9
200.595	55.81
200.814	39.42
201.033	-34.3
201.252	70.14
201.471	4.61
201.69	82.43
201.909	-7.68
202.128	70.14
202.347	57.86
202.566	51.71
202.785	-9.73
203.004	80.38
203.223	8.7
203.442	16.9
203.661	0.51
203.879	23.04
204.098	86.53
204.317	33.28
204.536	64
204.755	8.7
204.974	-26.11
205.193	-34.3
205.411	49.66
205.63	25.09
205.849	68.09
206.068	-30.21
206.287	-11.78
206.505	68.09
206.724	-19.97
206.943	-13.82
207.162	16.9
207.381	16.9
207.599	88.57
207.818	41.47
208.037	16.9
208.255	-73.21
208.474	27.14
208.693	-3.58
208.911	33.28
209.13	-3.58
209.349	8.7
209.567	-9.73
209.786	31.23
210.005	53.76
210.223	16.9
210.442	14.85
210.661	41.47
210.879	47.62
211.098	57.86
211.316	84.48
211.535	47.62
211.753	59.9
211.972	31.23
212.191	14.85
212.409	4.61
212.628	-1.54
212.846	37.38
213.065	76.29
213.283	-34.3
213.502	20.99
213.72	-19.97
213.938	39.42
214.157	-3.58
214.375	33.28
214.594	23.04
214.812	68.09
215.031	10.75
215.249	-52.74
215.467	14.85
215.686	51.71
215.904	-17.92
216.122	0.51
216.341	18.94
216.559	16.9
216.778	61.95
216.996	92.67
217.214	35.33
217.432	57.86
217.651	14.85
217.869	72.19
218.087	-28.16
218.306	41.47
218.524	-11.78
218.742	8.7
218.96	4.61
219.179	121.34
219.397	23.04
219.615	59.9
219.833	-5.63
220.051	55.81
220.27	49.66
220.488	88.57
220.706	10.75
220.924	8.7
221.142	-1.54
221.36	16.9
221.578	-7.68
221.796	-34.3
222.015	8.7
222.233	-30.21
222.451	37.38
222.669	57.86
222.887	66.05
223.105	98.81
223.323	33.28
223.541	-5.63
223.759	23.04
223.977	-3.58
224.195	2.56
224.413	76.29
224.631	55.81
224.849	10.75
225.067	78.33
225.285	43.52
225.503	100.86
225.721	-5.63
225.939	49.66
226.157	57.86
226.375	78.33
226.592	39.42
226.81	43.52
227.028	43.52
227.246	96.77
227.464	-17.92
227.682	121.34
227.9	-30.21
228.117	25.09
228.335	31.23
228.553	4.61
228.771	2.56
228.989	37.38
229.206	-24.06
229.424	33.28
229.642	49.66
229.86	35.33
230.077	12.8
230.295	2.56
230.513	61.95
230.731	-17.92
230.948	31.23
231.166	104.96
231.384	23.04
231.601	70.14
231.819	4.61
232.037	94.72
232.254	55.81
232.472	49.66
232.689	-15.87
232.907	49.66
233.125	98.81
233.342	53.76
233.56	-30.21
233.777	31.23
233.995	37.38
234.213	53.76
234.43	8.7
234.648	43.52
234.865	-5.63
235.083	8.7
235.3	86.53
235.518	0.51
235.735	57.86
235.953	2.56
236.17	20.99
236.388	6.66
236.605	0.51
236.822	49.66
237.04	25.09
237.257	78.33
237.475	18.94
237.692	33.28
237.909	74.24
238.127	-24.06
238.344	-30.21
238.562	127.49
238.779	-52.74
238.996	80.38
239.214	8.7
239.431	12.8
239.648	-32.26
239.865	76.29
240.083	88.57
240.3	25.09
240.517	27.14
240.735	53.76
240.952	12.8
241.169	43.52
241.386	53.76
241.603	-15.87
241.821	2.56
242.038	55.81
242.255	107.01
242.472	-7.68
242.689	43.52
242.907	57.86
243.124	109.05
243.341	57.86
243.558	-42.5
243.775	-5.63
243.992	-40.45
244.209	102.91
244.426	55.81
244.643	33.28
244.86	18.94
245.078	10.75
245.295	45.57
245.512	49.66
245.729	72.19
245.946	45.57
246.163	78.33
246.38	90.62
246.597	-1.54
246.814	55.81
247.031	55.81
247.248	78.33
247.464	-17.92
247.681	-5.63
247.898	-17.92
248.115	55.81
248.332	-5.63
248.549	104.96
248.766	39.42
248.983	102.91
249.2	74.24
249.417	70.14
249.633	57.86
249.85	14.85
250.067	33.28
250.284	27.14
250.501	45.57
250.717	31.23
250.934	35.33
251.151	6.66
251.368	6.66
251.585	64
251.801	-40.45
252.018	0.51
252.235	-30.21
252.451	43.52
252.668	39.42
252.885	61.95
253.102	37.38
253.318	12.8
253.535	6.66
253.752	31.23
253.968	-15.87
254.185	-13.82
254.401	18.94
254.618	90.62
254.835	4.61
255.051	37.38
255.268	12.8
255.484	59.9
255.701	-19.97
255.917	68.09
256.134	-5.63
256.351	82.43
256.567	39.42
256.784	18.94
257	-7.68
257.217	92.67
257.433	16.9
257.65	35.33
257.866	78.33
258.082	20.99
258.299	64
258.515	88.57
258.732	-11.78
258.948	6.66
259.165	68.09
259.381	90.62
259.597	2.56
259.814	72.19
260.03	59.9
260.246	14.85
260.463	92.67
260.679	23.04
260.895	-36.35
261.112	84.48
261.328	0.51
261.544	70.14
261.761	-19.97
261.977	8.7
262.193	45.57
262.409	25.09
262.626	55.81
262.842	-5.63
263.058	61.95
263.274	16.9
263.49	-1.54
263.707	12.8
263.923	-5.63
264.139	-36.35
264.355	12.8
264.571	49.66
264.787	-30.21
265.004	104.96
265.22	33.28
265.436	35.33
265.652	0.51
265.868	39.42
266.084	-1.54
266.3	51.71
266.516	25.09
266.732	35.33
266.948	-22.02
267.164	76.29
267.38	12.8
267.596	-50.69
267.812	51.71
268.028	-30.21
268.244	27.14
268.46	70.14
268.676	23.04
268.892	53.76
269.108	18.94
269.324	0.51
269.54	2.56
269.756	-32.26
269.972	-54.78
270.188	4.61
270.403	70.14
270.619	74.24
270.835	-9.73
271.051	-34.3
271.267	61.95
271.483	41.47
271.698	-34.3
271.914	31.23
272.13	-52.74
272.346	35.33
272.562	2.56
272.777	53.76
272.993	4.61
273.209	33.28
273.425	64
273.64	16.9
273.856	61.95
274.072	-46.59
274.287	49.66
274.503	84.48
274.719	29.18
274.934	68.09
275.15	-17.92
275.366	18.94
275.581	-32.26
275.797	27.14
276.012	31.23
276.228	6.66
276.444	-3.58
276.659	121.34
276.875	27.14
277.09	49.66
277.306	41.47
277.521	78.33
277.737	8.7
277.952	33.28
278.168	82.43
278.383	55.81
278.599	-62.98
278.814	45.57
279.03	-56.83
279.245	43.52
279.461	4.61
279.676	68.09
279.892	12.8
280.107	49.66
280.322	61.95
280.538	8.7
280.753	33.28
280.969	31.23
281.184	35.33
281.399	45.57
281.615	94.72
281.83	12.8
282.045	59.9
282.26	82.43
282.476	68.09
282.691	-9.73
282.906	80.38
283.122	8.7
283.337	47.62
283.552	74.24
283.767	43.52
283.983	37.38
284.198	8.7
284.413	55.81
284.628	-38.4
284.843	72.19
285.058	113.15
285.274	49.66
285.489	72.19
285.704	49.66
285.919	59.9
286.134	107.01
286.349	61.95
286.564	59.9
286.779	59.9
286.995	29.18
287.21	47.62
287.425	0.51
287.64	55.81
287.855	-13.82
288.07	51.71
288.285	8.7
288.5	27.14
288.715	64
288.93	33.28
289.145	61.95
289.36	109.05
289.575	-65.02
289.79	82.43
290.004	72.19
290.219	70.14
290.434	135.68
290.649	16.9
290.864	-7.68
291.079	51.71
291.294	72.19
291.509	45.57
291.724	43.52
291.938	20.99
292.153	113.15
292.368	59.9
292.583	33.28
292.798	55.81
293.012	6.66
293.227	-24.06
293.442	12.8
293.657	-11.78
293.871	82.43
294.086	39.42
294.301	76.29
294.516	80.38
294.73	-5.63
294.945	33.28
295.16	45.57
295.374	45.57
295.589	4.61
295.804	-22.02
296.018	43.52
296.233	6.66
296.447	66.05
296.662	55.81
296.877	45.57
297.091	16.9
297.306	53.76
297.52	-3.58
297.735	14.85
297.949	74.24
298.164	43.52
298.378	59.9
298.593	33.28
298.807	55.81
299.022	-19.97
299.236	64
299.451	37.38
299.665	33.28
299.88	96.77
300.094	39.42
300.309	64
300.523	33.28
300.737	4.61
300.952	20.99
301.166	27.14
301.381	33.28
301.595	8.7
301.809	80.38
302.024	35.33
302.238	31.23
302.452	57.86
302.667	55.81
302.881	72.19
303.095	59.9
303.309	39.42
303.524	16.9
303.738	-9.73
303.952	-1.54
304.166	57.86
304.381	8.7
304.595	29.18
304.809	2.56
305.023	0.51
305.237	59.9
305.452	47.62
305.666	121.34
305.88	41.47
306.094	23.04
306.308	39.42
306.522	37.38
306.736	20.99
306.95	66.05
307.164	12.8
307.379	10.75
307.593	68.09
307.807	49.66
308.021	41.47
308.235	84.48
308.449	53.76
308.663	14.85
308.877	76.29
309.091	14.85
309.305	96.77
309.519	76.29
309.733	10.75
309.947	-85.5
310.161	82.43
310.374	88.57
310.588	39.42
310.802	47.62
311.016	109.05
311.23	53.76
311.444	-26.11
311.658	2.56
311.872	51.71
312.085	92.67
312.299	119.29
312.513	84.48
312.727	88.57
312.941	4.61
313.154	109.05
313.368	51.71
313.582	33.28
313.796	18.94
314.009	27.14
314.223	41.47
314.437	53.76
314.651	104.96
314.864	6.66
315.078	2.56
315.292	64
315.505	14.85
315.719	29.18
315.933	100.86
316.146	0.51
316.36	-38.4
316.573	57.86
316.787	76.29
317.001	53.76
317.214	0.51
317.428	57.86
317.641	-26.11
317.855	43.52
318.068	111.1
318.282	76.29
318.495	115.2
318.709	84.48
318.922	-65.02
319.136	35.33
319.349	31.23
319.563	25.09
319.776	29.18
319.99	0.51
320.203	100.86
320.417	18.94
320.63	59.9
320.843	-32.26
321.057	121.34
321.27	-5.63
321.483	20.99
321.697	86.53
321.91	51.71
322.124	-13.82
322.337	6.66
322.55	8.7
322.763	61.95
322.977	82.43
323.19	37.38
323.403	51.71
323.617	68.09
323.83	33.28
324.043	57.86
324.256	59.9
324.469	53.76
324.683	131.58
324.896	-36.35
325.109	35.33
325.322	8.7
325.535	35.33
325.748	33.28
325.962	33.28
326.175	14.85
326.388	4.61
326.601	59.9
326.814	47.62
327.027	90.62
327.24	137.73
327.453	-22.02
327.666	27.14
327.879	25.09
328.092	27.14
328.305	57.86
328.518	68.09
328.731	-28.16
328.944	57.86
329.157	53.76
329.37	29.18
329.583	51.71
329.796	98.81
330.009	31.23
330.222	0.51
330.435	33.28
330.648	66.05
330.861	29.18
331.073	-15.87
331.286	41.47
331.499	29.18
331.712	59.9
331.925	98.81
332.138	90.62
332.35	86.53
332.563	10.75
332.776	84.48
332.989	55.81
333.202	10.75
333.414	33.28
333.627	70.14
333.84	74.24
334.053	123.39
334.265	41.47
334.478	16.9
334.691	47.62
334.903	53.76
335.116	43.52
335.329	0.51
335.541	55.81
335.754	88.57
335.966	16.9
336.179	68.09
336.392	74.24
336.604	10.75
336.817	53.76
337.029	29.18
337.242	84.48
337.454	35.33
337.667	31.23
337.88	49.66
338.092	80.38
338.305	80.38
338.517	4.61
338.729	88.57
338.942	68.09
339.154	2.56
339.367	49.66
339.579	-71.17
339.792	-1.54
340.004	80.38
340.217	47.62
340.429	45.57
340.641	12.8
340.854	29.18
341.066	57.86
341.278	23.04
341.491	100.86
341.703	-24.06
341.915	-5.63
342.128	61.95
342.34	76.29
342.552	68.09
342.764	20.99
342.977	-15.87
343.189	49.66
343.401	35.33
343.613	-3.58
343.826	14.85
344.038	-34.3
344.25	43.52
344.462	49.66
344.674	66.05
344.886	158.21
345.099	98.81
345.311	47.62
345.523	51.71
345.735	-7.68
345.947	64
346.159	-17.92
346.371	43.52
346.583	-9.73
346.795	72.19
347.007	88.57
347.219	-7.68
347.431	-73.21
347.643	92.67
347.855	27.14
348.067	84.48
348.279	-19.97
348.491	39.42
348.703	78.33
348.915	47.62
349.127	74.24
349.339	72.19
349.551	-9.73
349.763	8.7
349.975	20.99
350.187	64
350.399	51.71
350.61	102.91
350.822	2.56
351.034	47.62
351.246	61.95
351.458	14.85
351.669	47.62
351.881	113.15
352.093	57.86
352.305	59.9
352.517	-1.54
352.728	78.33
352.94	10.75
353.152	74.24
353.363	68.09
353.575	20.99
353.787	27.14
353.999	94.72
354.21	66.05
354.422	61.95
354.633	14.85
354.845	53.76
355.057	55.81
355.268	96.77
355.48	98.81
355.692	59.9
355.903	72.19
356.115	18.94
356.326	66.05
356.538	66.05
356.749	68.09
356.961	49.66
357.172	10.75
357.384	86.53
357.595	70.14
357.807	98.81
358.018	59.9
358.23	16.9
358.441	90.62
358.653	74.24
358.864	-11.78
359.075	0.51
359.287	-44.54
359.498	43.52
359.709	104.96
359.921	90.62
360.132	88.57
360.344	92.67
360.555	-9.73
360.766	-1.54
360.977	31.23
361.189	84.48
361.4	61.95
361.611	76.29
361.823	8.7
362.034	64
362.245	61.95
362.456	74.24
362.667	29.18
362.879	-28.16
363.09	25.09
363.301	82.43
363.512	43.52
363.723	59.9
363.935	55.81
364.146	82.43
364.357	68.09
364.568	41.47
364.779	33.28
364.99	68.09
365.201	16.9
365.412	35.33
365.623	-34.3
365.834	96.77
366.045	49.66
366.256	88.57
366.467	43.52
366.678	18.94
366.889	41.47
367.1	27.14
367.311	41.47
367.522	25.09
367.733	111.1
367.944	139.77
368.155	74.24
368.366	59.9
368.577	72.19
368.788	57.86
368.999	0.51
369.209	16.9
369.42	119.29
369.631	127.49
369.842	41.47
370.053	66.05
370.264	98.81
370.474	25.09
370.685	41.47
370.896	57.86
371.107	27.14
371.317	88.57
371.528	94.72
371.739	74.24
371.95	16.9
372.16	29.18
372.371	117.25
372.582	33.28
372.792	90.62
373.003	78.33
373.214	76.29
373.424	107.01
373.635	102.91
373.846	127.49
374.056	74.24
374.267	92.67
374.477	86.53
374.688	80.38
374.898	88.57
375.109	74.24
375.319	35.33
375.53	80.38
375.74	-19.97
375.951	119.29
376.161	76.29
376.372	51.71
376.582	88.57
376.793	43.52
377.003	-17.92
377.214	6.66
377.424	49.66
377.635	61.95
377.845	98.81
378.055	84.48
378.266	72.19
378.476	57.86
378.686	100.86
378.897	66.05
379.107	41.47
379.317	72.19
379.528	59.9
379.738	39.42
379.948	23.04
380.158	68.09
380.369	96.77
380.579	117.25
380.789	45.57
380.999	27.14
381.21	72.19
381.42	45.57
381.63	76.29
381.84	82.43
382.05	57.86
382.261	102.91
382.471	74.24
382.681	47.62
382.891	64
383.101	35.33
383.311	53.76
383.521	113.15
383.731	20.99
383.941	80.38
384.151	115.2
384.361	64
384.571	66.05
384.781	76.29
384.991	74.24
385.201	96.77
385.411	-24.06
385.621	90.62
385.831	43.52
386.041	43.52
386.251	90.62
386.461	119.29
386.671	57.86
386.881	168.45
387.091	4.61
387.301	98.81
387.511	78.33
387.72	102.91
387.93	53.76
388.14	109.05
388.35	55.81
388.56	53.76
388.769	117.25
388.979	2.56
389.189	-24.06
389.399	94.72
389.609	82.43
389.818	174.59
390.028	59.9
390.238	88.57
390.447	66.05
390.657	98.81
390.867	49.66
391.076	49.66
391.286	92.67
391.496	68.09
391.705	64
391.915	57.86
392.125	33.28
392.334	98.81
392.544	43.52
392.753	88.57
392.963	10.75
393.172	80.38
393.382	88.57
393.591	147.97
393.801	59.9
394.01	59.9
394.22	104.96
394.429	104.96
394.639	16.9
394.848	125.44
395.058	72.19
395.267	145.92
395.477	121.34
395.686	102.91
395.895	119.29
396.105	150.01
396.314	162.3
396.524	86.53
396.733	68.09
396.942	113.15
397.152	82.43
397.361	117.25
397.57	78.33
397.78	74.24
397.989	76.29
398.198	166.4
398.407	39.42
398.617	121.34
398.826	90.62
399.035	72.19
399.244	74.24
399.453	49.66
399.663	59.9
399.872	123.39
400.081	119.29
400.29	113.15
400.499	145.92
400.708	31.23
400.917	154.11
401.127	70.14
401.336	76.29
401.545	199.16
401.754	160.25
401.963	236.03
402.172	141.82
402.381	117.25
402.59	98.81
402.799	102.91
403.008	164.35
403.217	100.86
403.426	129.53
403.635	33.28
403.844	94.72
404.053	139.77
404.262	141.82
404.471	176.64
404.68	172.54
404.888	123.39
405.097	139.77
405.306	205.31
405.515	184.83
405.724	168.45
405.933	168.45
406.142	117.25
406.35	190.97
406.559	180.73
406.768	199.16
406.977	190.97
407.185	170.49
407.394	213.5
407.603	172.54
407.812	219.64
408.02	195.07
408.229	186.88
408.438	244.22
408.646	178.69
408.855	217.6
409.064	254.46
409.272	262.65
409.481	258.56
409.69	276.99
409.898	307.71
410.107	324.09
410.315	342.52
410.524	332.28
410.733	363
410.941	346.62
411.15	369.15
411.358	397.82
411.567	399.87
411.775	356.86
411.984	391.67
412.192	432.63
412.401	389.63
412.609	414.2
412.818	496.12
413.026	612.85
413.234	502.26
413.443	449.02
413.651	532.98
413.86	588.28
414.068	659.96
414.276	635.38
414.485	555.51
414.693	709.11
414.901	621.05
415.11	715.25
415.318	676.34
415.526	723.44
415.734	850.42
415.943	756.21
416.151	780.79
416.359	819.7
416.567	897.52
416.776	893.43
416.984	1018.35
417.192	1001.97
417.4	920.05
417.608	1047.02
417.817	965.11
418.025	1044.98
418.233	1206.77
418.441	1165.81
418.649	1262.06
418.857	1247.72
419.065	1298.92
419.273	1292.78
419.481	1417.71
419.689	1503.72
419.897	1483.24
420.105	1628.65
420.313	1604.07
420.521	1571.3
420.729	1683.94
420.937	1722.85
421.145	1739.24
421.353	1849.83
421.561	2025.95
421.769	2021.86
421.977	2134.5
422.185	2058.72
422.393	2148.83
422.601	2169.31
422.809	2365.92
423.017	2351.58
423.224	2449.88
423.432	2453.98
423.64	2429.4
423.848	2873.81
424.056	2654.68
424.263	2818.52
424.471	2834.9
424.679	2935.25
424.887	3074.51
425.094	3187.15
425.302	3201.49
425.51	3361.23
425.718	3381.71
425.925	3504.59
426.133	3520.97
426.341	3893.7
426.548	3807.69
426.756	3897.8
426.964	3996.1
427.171	4184.51
427.379	4368.83
427.586	4458.94
427.794	4561.34
428.001	4749.75
428.209	5077.43
428.417	4923.83
428.624	5247.41
428.832	5292.46
429.039	5284.27
429.247	5388.72
429.454	5740.97
429.662	6152.61
429.869	5777.83
430.076	6101.41
430.284	5937.57
430.491	6162.85
430.699	6685.08
430.906	6625.69
431.114	6617.5
431.321	6982.04
431.528	7139.73
431.736	7664.01
431.943	7799.18
432.15	7573.9
432.358	7760.27
432.565	8167.81
432.772	8153.48
432.979	8638.84
433.187	8429.95
433.394	8702.33
433.601	9320.82
433.808	9349.49
434.016	9498.99
434.223	9537.9
434.43	10305.89
434.637	10131.81
434.844	10795.36
435.052	10961.24
435.259	10695
435.466	11141.46
435.673	10844.51
435.88	11534.67
436.087	12278.08
436.294	12321.09
436.501	12167.49
436.708	12243.27
436.915	12624.19
437.122	13224.25
437.329	13281.59
437.537	13558.07
437.743	13701.42
437.95	13726
438.157	14487.84
438.364	15065.37
438.571	14782.75
438.778	14862.62
438.985	16390.41
439.192	15751.44
439.399	16177.42
439.606	15946
439.813	16840.96
440.02	17778.93
440.227	17416.44
440.433	17473.78
440.64	18104.56
440.847	17592.56
441.054	18067.69
441.261	19423.45
441.467	19267.8
441.674	19826.9
441.881	20183.24
442.088	20535.49
442.294	20193.48
442.501	20627.65
442.708	21225.66
442.914	21692.6
443.121	23216.29
443.328	22337.71
443.534	23759
443.741	23402.65
443.948	22849.7
444.154	24463.5
444.361	24297.61
444.568	24789.13
444.774	24739.97
444.981	25131.14
445.187	25798.77
445.394	26710.12
445.6	26337.39
445.807	28659.79
446.013	27813.98
446.22	28254.29
446.426	29374.53
446.633	29704.25
446.839	30634.03
447.046	29225.03
447.252	31039.53
447.459	31146.02
447.665	30851.11
447.871	32045.08
448.078	33773.56
448.284	31989.78
448.491	33187.85
448.697	34293.75
448.903	34824.17
449.11	34949.1
449.316	34416.63
449.522	35223.53
449.728	36304.85
449.935	36046.81
450.141	36116.44
450.347	37330.89
450.553	36169.69
450.76	36331.48
450.966	37799.87
451.172	37541.83
451.378	38158.27
451.584	37562.31
451.791	38387.64
451.997	38281.14
452.203	38817.71
452.409	38836.14
452.615	38391.73
452.821	37457.86
453.027	37007.31
453.233	39135.15
453.44	37214.15
453.646	37765.06
453.852	37844.93
454.058	38584.24
454.264	37468.1
454.47	38490.04
454.676	37402.57
454.882	38303.67
455.088	35405.8
455.294	35756
455.5	35989.47
455.705	36761.55
455.911	35557.35
456.117	34637.81
456.323	34131.96
456.529	32475.15
456.735	34068.47
456.941	33159.17
457.147	32516.11
457.352	31481.89
457.558	31299.62
457.764	31268.9
457.97	30910.5
458.176	29993.01
458.381	30273.59
458.587	28342.35
458.793	28868.68
458.999	27162.72
459.204	28858.44
459.41	28260.43
459.616	26339.44
459.821	26527.85
460.027	26177.65
460.233	25628.79
460.438	24688.78
460.644	24608.9
460.85	23351.45
461.055	23115.94
461.261	23056.54
461.466	21487.8
461.672	20648.13
461.878	22196.4
462.083	20603.08
462.289	20224.2
462.494	20211.92
462.7	19681.49
462.905	18884.83
463.111	19298.52
463.316	19757.27
463.522	19050.72
463.727	19151.07
463.932	19212.51
464.138	18868.45
464.343	18944.22
464.549	18335.98
464.754	19099.87
464.959	18677.99
465.165	18772.19
465.37	17932.53
465.575	17666.29
465.781	18260.2
465.986	18282.73
466.191	17871.09
466.397	17688.82
466.602	16494.85
466.807	17178.87
467.012	17152.25
467.218	16949.5
467.423	16851.2
467.628	17225.98
467.833	17649.91
468.038	16924.93
468.244	16439.56
468.449	17152.25
468.654	16685.31
468.859	16627.97
