Data from USB4F104151__86__12-27-57-290.txt Node

Date: Fri Mar 14 12:27:57 EDT 2025
User: louis
Spectrometer: USB4F10415
Trigger mode: 4
Integration Time (sec): 2.000000E-2
Scans to average: 1
Electric dark correction enabled: true
Nonlinearity correction enabled: false
Boxcar width: 0
XAxis mode: Wavelengths
Number of Pixels in Spectrum: 3648
>>>>>Begin Spectral Data<<<<<
178.204	-68.27
178.424	-68.27
178.644	-68.27
178.864	-33.45
179.084	-47.79
179.304	-15.02
179.524	34.13
179.744	-10.92
179.964	3.41
180.184	-15.02
180.404	-45.74
180.624	32.08
180.844	-8.87
181.064	-35.5
181.283	-15.02
181.503	-2.73
181.723	79.19
181.943	-19.11
182.163	27.99
182.383	21.84
182.602	136.53
182.822	19.8
183.042	15.7
183.262	64.85
183.482	54.61
183.701	-49.83
183.921	56.66
184.141	-51.88
184.361	42.32
184.58	-2.73
184.8	48.47
185.02	-58.03
185.239	38.23
185.459	17.75
185.679	85.33
185.898	62.8
186.118	79.19
186.338	-10.92
186.557	62.8
186.777	79.19
186.997	-15.02
187.216	-19.11
187.436	52.56
187.655	27.99
187.875	13.65
188.095	62.8
188.314	105.81
188.534	27.99
188.753	32.08
188.973	34.13
189.192	15.7
189.412	56.66
189.631	-17.07
189.851	-0.68
190.07	36.18
190.29	40.28
190.509	71
190.729	48.47
190.948	21.84
191.168	89.43
191.387	99.67
191.607	3.41
191.826	89.43
192.045	13.65
192.265	-68.27
192.484	-41.64
192.704	-10.92
192.923	-6.83
193.142	71
193.362	89.43
193.581	52.56
193.8	40.28
194.02	19.8
194.239	-6.83
194.458	60.76
194.678	52.56
194.897	30.04
195.116	48.47
195.335	19.8
195.555	42.32
195.774	11.61
195.993	71
196.212	44.37
196.432	9.56
196.651	30.04
196.87	3.41
197.089	109.91
197.308	34.13
197.528	46.42
197.747	9.56
197.966	42.32
198.185	87.38
198.404	38.23
198.623	62.8
198.842	-4.78
199.062	-17.07
199.281	-2.73
199.5	9.56
199.719	-33.45
199.938	89.43
200.157	60.76
200.376	-23.21
200.595	27.99
200.814	-6.83
201.033	30.04
201.252	54.61
201.471	-17.07
201.69	62.8
201.909	52.56
202.128	79.19
202.347	-6.83
202.566	-12.97
202.785	19.8
203.004	-6.83
203.223	126.29
203.442	-29.35
203.661	48.47
203.879	50.52
204.098	54.61
204.317	-49.83
204.536	91.48
204.755	81.24
204.974	-21.16
205.193	19.8
205.411	48.47
205.63	19.8
205.849	-23.21
206.068	34.13
206.287	103.76
206.505	66.9
206.724	-8.87
206.943	32.08
207.162	38.23
207.381	60.76
207.599	50.52
207.818	27.99
208.037	19.8
208.255	107.86
208.474	3.41
208.693	73.04
208.911	25.94
209.13	-6.83
209.349	19.8
209.567	142.68
209.786	44.37
210.005	73.04
210.223	-25.26
210.442	3.41
210.661	25.94
210.879	27.99
211.098	40.28
211.316	-19.11
211.535	9.56
211.753	75.09
211.972	-6.83
212.191	17.75
212.409	52.56
212.628	1.37
212.846	-0.68
213.065	-33.45
213.283	36.18
213.502	34.13
213.72	120.15
213.938	27.99
214.157	58.71
214.375	-8.87
214.594	71
214.812	38.23
215.031	30.04
215.249	-21.16
215.467	48.47
215.686	66.9
215.904	73.04
216.122	23.89
216.341	5.46
216.559	54.61
216.778	66.9
216.996	58.71
217.214	30.04
217.432	-31.4
217.651	19.8
217.869	19.8
218.087	13.65
218.306	19.8
218.524	81.24
218.742	11.61
218.96	-2.73
219.179	-25.26
219.397	25.94
219.615	46.42
219.833	97.62
220.051	-4.78
220.27	15.7
220.488	48.47
220.706	3.41
220.924	25.94
221.142	30.04
221.36	7.51
221.578	-23.21
221.796	36.18
222.015	38.23
222.233	9.56
222.451	99.67
222.669	-15.02
222.887	9.56
223.105	-29.35
223.323	9.56
223.541	25.94
223.759	46.42
223.977	36.18
224.195	68.95
224.413	52.56
224.631	15.7
224.849	56.66
225.067	40.28
225.285	-21.16
225.503	7.51
225.721	-2.73
225.939	85.33
226.157	73.04
226.375	-0.68
226.592	44.37
226.81	25.94
227.028	44.37
227.246	89.43
227.464	44.37
227.682	-8.87
227.9	-15.02
228.117	42.32
228.335	-4.78
228.553	50.52
228.771	36.18
228.989	71
229.206	-25.26
229.424	52.56
229.642	32.08
229.86	81.24
230.077	58.71
230.295	118.1
230.513	44.37
230.731	103.76
230.948	48.47
231.166	-43.69
231.384	77.14
231.601	5.46
231.819	62.8
232.037	32.08
232.254	-31.4
232.472	11.61
232.689	36.18
232.907	3.41
233.125	77.14
233.342	-45.74
233.56	-55.98
233.777	-23.21
233.995	60.76
234.213	54.61
234.43	56.66
234.648	36.18
234.865	7.51
235.083	40.28
235.3	9.56
235.518	89.43
235.735	50.52
235.953	85.33
236.17	27.99
236.388	58.71
236.605	66.9
236.822	48.47
237.04	5.46
237.257	38.23
237.475	23.89
237.692	-25.26
237.909	-8.87
238.127	60.76
238.344	89.43
238.562	3.41
238.779	-8.87
238.996	5.46
239.214	-33.45
239.431	5.46
239.648	17.75
239.865	21.84
240.083	64.85
240.3	38.23
240.517	-8.87
240.735	97.62
240.952	50.52
241.169	21.84
241.386	25.94
241.603	3.41
241.821	52.56
242.038	38.23
242.255	140.63
242.472	32.08
242.689	52.56
242.907	95.57
243.124	-10.92
243.341	101.72
243.558	62.8
243.775	46.42
243.992	-2.73
244.209	25.94
244.426	56.66
244.643	32.08
244.86	15.7
245.078	81.24
245.295	79.19
245.512	42.32
245.729	-31.4
245.946	44.37
246.163	25.94
246.38	-33.45
246.597	97.62
246.814	21.84
247.031	5.46
247.248	9.56
247.464	19.8
247.681	19.8
247.898	-0.68
248.115	99.67
248.332	11.61
248.549	64.85
248.766	107.86
248.983	-10.92
249.2	38.23
249.417	89.43
249.633	66.9
249.85	140.63
250.067	-4.78
250.284	-8.87
250.501	87.38
250.717	11.61
250.934	17.75
251.151	-78.51
251.368	40.28
251.585	25.94
251.801	32.08
252.018	46.42
252.235	52.56
252.451	3.41
252.668	71
252.885	15.7
253.102	-21.16
253.318	11.61
253.535	27.99
253.752	23.89
253.968	79.19
254.185	42.32
254.401	23.89
254.618	34.13
254.835	36.18
255.051	50.52
255.268	21.84
255.484	52.56
255.701	13.65
255.917	38.23
256.134	-4.78
256.351	-6.83
256.567	23.89
256.784	54.61
257	-27.31
257.217	50.52
257.433	32.08
257.65	83.28
257.866	99.67
258.082	23.89
258.299	-6.83
258.515	3.41
258.732	13.65
258.948	75.09
259.165	13.65
259.381	-0.68
259.597	23.89
259.814	1.37
260.03	56.66
260.246	38.23
260.463	46.42
260.679	48.47
260.895	46.42
261.112	23.89
261.328	30.04
261.544	64.85
261.761	95.57
261.977	11.61
262.193	-84.65
262.409	103.76
262.626	-39.59
262.842	71
263.058	-15.02
263.274	64.85
263.49	44.37
263.707	36.18
263.923	42.32
264.139	36.18
264.355	36.18
264.571	114
264.787	-29.35
265.004	34.13
265.22	68.95
265.436	56.66
265.652	15.7
265.868	54.61
266.084	-6.83
266.3	34.13
266.516	38.23
266.732	19.8
266.948	93.52
267.164	-17.07
267.38	-8.87
267.596	38.23
267.812	77.14
268.028	58.71
268.244	40.28
268.46	30.04
268.676	-8.87
268.892	3.41
269.108	-66.22
269.324	-64.17
269.54	50.52
269.756	19.8
269.972	-8.87
270.188	-29.35
270.403	30.04
270.619	56.66
270.835	68.95
271.051	42.32
271.267	15.7
271.483	23.89
271.698	56.66
271.914	85.33
272.13	50.52
272.346	1.37
272.562	81.24
272.777	44.37
272.993	36.18
273.209	-29.35
273.425	58.71
273.64	-31.4
273.856	44.37
274.072	7.51
274.287	95.57
274.503	-17.07
274.719	93.52
274.934	27.99
275.15	34.13
275.366	-27.31
275.581	9.56
275.797	46.42
276.012	58.71
276.228	19.8
276.444	34.13
276.659	48.47
276.875	58.71
277.09	34.13
277.306	25.94
277.521	111.96
277.737	7.51
277.952	54.61
278.168	91.48
278.383	52.56
278.599	73.04
278.814	58.71
279.03	40.28
279.245	27.99
279.461	73.04
279.676	68.95
279.892	3.41
280.107	-23.21
280.322	5.46
280.538	19.8
280.753	52.56
280.969	46.42
281.184	36.18
281.399	87.38
281.615	-10.92
281.83	38.23
282.045	-6.83
282.26	21.84
282.476	-21.16
282.691	25.94
282.906	32.08
283.122	111.96
283.337	-6.83
283.552	27.99
283.767	-49.83
283.983	38.23
284.198	103.76
284.413	25.94
284.628	-88.75
284.843	73.04
285.058	58.71
285.274	71
285.489	-41.64
285.704	58.71
285.919	19.8
286.134	52.56
286.349	62.8
286.564	9.56
286.779	9.56
286.995	7.51
287.21	46.42
287.425	58.71
287.64	34.13
287.855	1.37
288.07	-37.55
288.285	42.32
288.5	71
288.715	-23.21
288.93	7.51
289.145	27.99
289.36	21.84
289.575	44.37
289.79	30.04
290.004	32.08
290.219	21.84
290.434	44.37
290.649	58.71
290.864	13.65
291.079	87.38
291.294	17.75
291.509	3.41
291.724	19.8
291.938	54.61
292.153	60.76
292.368	30.04
292.583	81.24
292.798	38.23
293.012	64.85
293.227	19.8
293.442	83.28
293.657	81.24
293.871	13.65
294.086	91.48
294.301	163.15
294.516	21.84
294.73	50.52
294.945	42.32
295.16	38.23
295.374	21.84
295.589	64.85
295.804	13.65
296.018	25.94
296.233	-4.78
296.447	23.89
296.662	71
296.877	-0.68
297.091	62.8
297.306	54.61
297.52	-12.97
297.735	15.7
297.949	-12.97
298.164	66.9
298.378	44.37
298.593	48.47
298.807	-27.31
299.022	15.7
299.236	27.99
299.451	-19.11
299.665	62.8
299.88	1.37
300.094	75.09
300.309	118.1
300.523	38.23
300.737	71
300.952	13.65
301.166	71
301.381	-15.02
301.595	56.66
301.809	30.04
302.024	-0.68
302.238	42.32
302.452	27.99
302.667	79.19
302.881	105.81
303.095	52.56
303.309	7.51
303.524	-47.79
303.738	13.65
303.952	-15.02
304.166	11.61
304.381	9.56
304.595	-12.97
304.809	7.51
305.023	-15.02
305.237	62.8
305.452	42.32
305.666	42.32
305.88	77.14
306.094	91.48
306.308	32.08
306.522	-31.4
306.736	5.46
306.95	15.7
307.164	17.75
307.379	5.46
307.593	27.99
307.807	42.32
308.021	11.61
308.235	66.9
308.449	109.91
308.663	-19.11
308.877	40.28
309.091	7.51
309.305	38.23
309.519	-86.7
309.733	50.52
309.947	5.46
310.161	21.84
310.374	60.76
310.588	71
310.802	-6.83
311.016	-51.88
311.23	38.23
311.444	79.19
311.658	58.71
311.872	9.56
312.085	99.67
312.299	66.9
312.513	56.66
312.727	60.76
312.941	19.8
313.154	34.13
313.368	-19.11
313.582	-19.11
313.796	73.04
314.009	-17.07
314.223	56.66
314.437	46.42
314.651	21.84
314.864	11.61
315.078	36.18
315.292	9.56
315.505	64.85
315.719	40.28
315.933	19.8
316.146	66.9
316.36	75.09
316.573	91.48
316.787	93.52
317.001	73.04
317.214	13.65
317.428	15.7
317.641	-15.02
317.855	15.7
318.068	5.46
318.282	-53.93
318.495	-12.97
318.709	60.76
318.922	34.13
319.136	75.09
319.349	62.8
319.563	64.85
319.776	40.28
319.99	-23.21
320.203	87.38
320.417	32.08
320.63	-2.73
320.843	122.2
321.057	50.52
321.27	68.95
321.483	-10.92
321.697	85.33
321.91	3.41
322.124	64.85
322.337	34.13
322.55	87.38
322.763	126.29
322.977	11.61
323.19	17.75
323.403	13.65
323.617	19.8
323.83	62.8
324.043	30.04
324.256	73.04
324.469	21.84
324.683	75.09
324.896	17.75
325.109	-31.4
325.322	-6.83
325.535	71
325.748	79.19
325.962	38.23
326.175	1.37
326.388	60.76
326.601	77.14
326.814	42.32
327.027	40.28
327.24	42.32
327.453	-90.79
327.666	21.84
327.879	7.51
328.092	77.14
328.305	54.61
328.518	15.7
328.731	9.56
328.944	32.08
329.157	1.37
329.37	56.66
329.583	27.99
329.796	122.2
330.009	1.37
330.222	48.47
330.435	81.24
330.648	-19.11
330.861	21.84
331.073	30.04
331.286	64.85
331.499	87.38
331.712	52.56
331.925	32.08
332.138	-2.73
332.35	38.23
332.563	5.46
332.776	62.8
332.989	40.28
333.202	9.56
333.414	66.9
333.627	52.56
333.84	64.85
334.053	5.46
334.265	-0.68
334.478	58.71
334.691	40.28
334.903	83.28
335.116	-4.78
335.329	52.56
335.541	17.75
335.754	107.86
335.966	73.04
336.179	-15.02
336.392	32.08
336.604	32.08
336.817	-25.26
337.029	7.51
337.242	32.08
337.454	-12.97
337.667	-17.07
337.88	-39.59
338.092	116.05
338.305	52.56
338.517	-6.83
338.729	91.48
338.942	30.04
339.154	66.9
339.367	77.14
339.579	85.33
339.792	50.52
340.004	109.91
340.217	111.96
340.429	27.99
340.641	83.28
340.854	73.04
341.066	48.47
341.278	21.84
341.491	93.52
341.703	42.32
341.915	38.23
342.128	114
342.34	62.8
342.552	75.09
342.764	36.18
342.977	71
343.189	52.56
343.401	71
343.613	38.23
343.826	62.8
344.038	81.24
344.25	9.56
344.462	40.28
344.674	71
344.886	40.28
345.099	87.38
345.311	-0.68
345.523	79.19
345.735	13.65
345.947	75.09
346.159	-23.21
346.371	-10.92
346.583	-49.83
346.795	87.38
347.007	32.08
347.219	38.23
347.431	21.84
347.643	111.96
347.855	32.08
348.067	99.67
348.279	-68.27
348.491	40.28
348.703	101.72
348.915	79.19
349.127	-55.98
349.339	75.09
349.551	30.04
349.763	71
349.975	23.89
350.187	-25.26
350.399	42.32
350.61	105.81
350.822	30.04
351.034	32.08
351.246	101.72
351.458	46.42
351.669	23.89
351.881	97.62
352.093	142.68
352.305	-0.68
352.517	44.37
352.728	58.71
352.94	34.13
353.152	109.91
353.363	-31.4
353.575	17.75
353.787	77.14
353.999	-4.78
354.21	11.61
354.422	75.09
354.633	103.76
354.845	21.84
355.057	32.08
355.268	93.52
355.48	73.04
355.692	60.76
355.903	-0.68
356.115	17.75
356.326	-27.31
356.538	79.19
356.749	140.63
356.961	50.52
357.172	3.41
357.384	58.71
357.595	91.48
357.807	50.52
358.018	34.13
358.23	-45.74
358.441	73.04
358.653	25.94
358.864	17.75
359.075	60.76
359.287	68.95
359.498	34.13
359.709	23.89
359.921	-2.73
360.132	150.87
360.344	105.81
360.555	128.34
360.766	62.8
360.977	-47.79
361.189	93.52
361.4	25.94
361.611	-29.35
361.823	85.33
362.034	58.71
362.245	23.89
362.456	21.84
362.667	48.47
362.879	60.76
363.09	-6.83
363.301	144.72
363.512	154.96
363.723	3.41
363.935	-0.68
364.146	42.32
364.357	44.37
364.568	50.52
364.779	56.66
364.99	46.42
365.201	1.37
365.412	83.28
365.623	23.89
365.834	50.52
366.045	109.91
366.256	38.23
366.467	66.9
366.678	87.38
366.889	95.57
367.1	40.28
367.311	114
367.522	79.19
367.733	66.9
367.944	93.52
368.155	54.61
368.366	32.08
368.577	1.37
368.788	60.76
368.999	-0.68
369.209	87.38
369.42	42.32
369.631	7.51
369.842	27.99
370.053	15.7
370.264	1.37
370.474	36.18
370.685	116.05
370.896	-8.87
371.107	9.56
371.317	34.13
371.528	17.75
371.739	64.85
371.95	85.33
372.16	165.2
372.371	-23.21
372.582	3.41
372.792	34.13
373.003	75.09
373.214	-10.92
373.424	75.09
373.635	73.04
373.846	48.47
374.056	54.61
374.267	79.19
374.477	36.18
374.688	81.24
374.898	62.8
375.109	101.72
375.319	21.84
375.53	58.71
375.74	83.28
375.951	71
376.161	87.38
376.372	9.56
376.582	-25.26
376.793	97.62
377.003	56.66
377.214	30.04
377.424	79.19
377.635	79.19
377.845	38.23
378.055	95.57
378.266	11.61
378.476	66.9
378.686	3.41
378.897	-2.73
379.107	62.8
379.317	111.96
379.528	114
379.738	60.76
379.948	97.62
380.158	75.09
380.369	52.56
380.579	48.47
380.789	118.1
380.999	73.04
381.21	34.13
381.42	81.24
381.63	27.99
381.84	77.14
382.05	120.15
382.261	71
382.471	17.75
382.681	38.23
382.891	173.39
383.101	42.32
383.311	38.23
383.521	48.47
383.731	32.08
383.941	87.38
384.151	111.96
384.361	130.39
384.571	81.24
384.781	101.72
384.991	107.86
385.201	89.43
385.411	83.28
385.621	81.24
385.831	13.65
386.041	1.37
386.251	5.46
386.461	66.9
386.671	73.04
386.881	75.09
387.091	73.04
387.301	77.14
387.511	73.04
387.72	75.09
387.93	77.14
388.14	60.76
388.35	71
388.56	138.58
388.769	87.38
388.979	142.68
389.189	85.33
389.399	89.43
389.609	120.15
389.818	89.43
390.028	54.61
390.238	40.28
390.447	15.7
390.657	97.62
390.867	62.8
391.076	93.52
391.286	54.61
391.496	-8.87
391.705	52.56
391.915	75.09
392.125	60.76
392.334	48.47
392.544	95.57
392.753	81.24
392.963	83.28
393.172	105.81
393.382	19.8
393.591	130.39
393.801	46.42
394.01	132.44
394.22	19.8
394.429	23.89
394.639	23.89
394.848	71
395.058	81.24
395.267	71
395.477	165.2
395.686	114
395.895	140.63
396.105	85.33
396.314	38.23
396.524	87.38
396.733	64.85
396.942	144.72
397.152	148.82
397.361	134.48
397.57	138.58
397.78	89.43
397.989	85.33
398.198	120.15
398.407	85.33
398.617	52.56
398.826	157.01
399.035	68.95
399.244	75.09
399.453	91.48
399.663	83.28
399.872	97.62
400.081	79.19
400.29	52.56
400.499	159.06
400.708	107.86
400.917	85.33
401.127	52.56
401.336	114
401.545	109.91
401.754	130.39
401.963	189.78
402.172	116.05
402.381	83.28
402.59	107.86
402.799	167.25
403.008	87.38
403.217	214.35
403.426	136.53
403.635	130.39
403.844	109.91
404.053	140.63
404.262	91.48
404.471	120.15
404.68	210.26
404.888	132.44
405.097	107.86
405.306	177.49
405.515	179.54
405.724	175.44
405.933	183.63
406.142	236.88
406.35	148.82
406.559	197.97
406.768	208.21
406.977	189.78
407.185	224.59
407.394	171.35
407.603	181.59
407.812	261.46
408.02	191.83
408.229	224.59
408.438	218.45
408.646	189.78
408.855	204.11
409.064	212.31
409.272	236.88
409.481	265.55
409.69	220.5
409.898	214.35
410.107	353.62
410.315	417.1
410.524	249.17
410.733	339.28
410.941	257.36
411.15	380.24
411.358	370
411.567	460.11
411.775	372.05
411.984	410.96
412.192	453.97
412.401	415.05
412.609	468.3
412.818	517.45
413.026	472.4
413.234	572.75
413.443	531.79
413.651	472.4
413.86	564.56
414.068	605.52
414.276	648.52
414.485	660.81
414.693	556.36
414.901	652.62
415.11	632.14
415.318	685.39
415.526	714.06
415.734	732.49
415.943	793.93
416.151	890.18
416.359	755.02
416.567	800.07
416.776	853.32
416.984	980.29
417.192	1043.78
417.4	955.72
417.608	1043.78
417.817	1031.49
418.025	1129.8
418.233	1176.9
418.441	1135.94
418.649	1291.59
418.857	1318.21
419.065	1299.78
419.273	1240.39
419.481	1410.37
419.689	1381.7
419.897	1729.85
420.105	1559.87
420.313	1525.05
420.521	1643.84
420.729	1703.23
420.937	1647.93
421.145	1789.24
421.353	1848.63
421.561	1891.64
421.769	1879.35
421.977	2114.87
422.185	2035
422.393	2096.44
422.601	2290.99
422.809	2293.04
423.017	2358.58
423.224	2452.78
423.432	2508.08
423.64	2358.58
423.848	2837.8
424.056	2792.75
424.263	2858.28
424.471	2917.67
424.679	2956.58
424.887	2989.35
425.094	3282.21
425.302	3177.76
425.51	3278.12
425.718	3482.91
425.925	3583.26
426.133	3636.51
426.341	3732.76
426.548	4017.43
426.756	4025.62
426.964	4035.86
427.171	4234.52
427.379	4422.93
427.586	4470.03
427.794	4607.25
428.001	4769.04
428.209	4971.79
428.417	4943.11
428.624	5211.4
428.832	5278.98
429.039	5139.72
429.247	5231.88
429.454	5784.83
429.662	6100.22
429.869	5747.97
430.076	6022.39
430.284	6024.44
430.491	6323.44
430.699	6608.11
430.906	6472.95
431.114	6774
431.321	6925.55
431.528	7130.34
431.736	7455.97
431.943	7863.52
432.15	7580.9
432.358	7797.98
432.565	8000.73
432.772	7949.53
432.979	8547.54
433.187	8725.71
433.394	8860.88
433.601	9376.97
433.808	9307.34
434.016	9098.44
434.223	9592
434.43	10126.52
434.637	10276.02
434.844	10720.43
435.052	10939.57
435.259	10861.74
435.466	10902.7
435.673	10788.02
435.88	11386.02
436.087	12100.76
436.294	12270.75
436.501	11953.31
436.708	12237.98
436.915	12428.44
437.122	12909.71
437.329	13243.53
437.537	13560.97
437.743	13601.93
437.95	13663.36
438.157	14249.08
438.364	14814.32
438.571	14529.66
438.778	14765.17
438.985	16090.21
439.192	15778.92
439.399	16012.39
439.606	15707.24
439.813	16712.79
440.02	17585.22
440.227	17652.81
440.433	17390.67
440.64	17851.46
440.847	17650.76
441.054	18312.25
441.261	19418.16
441.467	19086.39
441.674	19833.89
441.881	20407.33
442.088	20124.71
442.294	20098.08
442.501	20493.34
442.708	21050.39
442.914	21916.68
443.121	22680.57
443.328	21980.17
443.534	23819.24
443.741	22981.62
443.948	22500.35
444.154	24339.43
444.361	24103.91
444.568	24466.4
444.774	24347.62
444.981	24460.26
445.187	25412.56
445.394	26416.07
445.6	26203.08
445.807	28535.71
446.013	27638.7
446.22	27993
446.426	29268.89
446.633	29315.99
446.839	30323.59
447.046	29059.99
447.252	30747.52
447.459	31067
447.665	30665.6
447.871	31925.1
448.078	33747.79
448.284	31748.98
448.491	32617.32
448.697	34034.51
448.903	34591.56
449.11	34468.68
449.316	34020.17
449.522	34919.23
449.728	35670.84
449.935	36025.14
450.141	36111.15
450.347	36604.71
450.553	35756.85
450.76	36252.46
450.966	37413.66
451.172	36889.38
451.378	37819.16
451.584	37278.49
451.791	37780.24
451.997	37694.23
452.203	38609.67
452.409	38603.53
452.615	38394.64
452.821	36891.43
453.027	36479.78
453.233	38517.51
453.44	36983.58
453.646	37376.79
453.852	37378.84
454.058	37972.75
454.264	37051.17
454.47	38091.54
454.676	37030.69
454.882	38216.46
455.088	34933.57
455.294	35455.8
455.5	36299.56
455.705	36805.41
455.911	35124.03
456.117	34069.33
456.323	33964.88
456.529	32383.85
456.735	33405.78
456.941	32783.2
457.147	32342.89
457.352	31112.06
457.558	31114.11
457.764	30884.73
457.97	30159.75
458.176	29784.97
458.381	29576.08
458.587	28384.16
458.793	28033.96
458.999	26840
459.204	28605.34
459.41	27820.97
459.616	26264.52
459.821	26033.1
460.027	26026.95
460.233	25643.98
460.438	24421.34
460.644	24749.02
460.85	23569.39
461.055	22942.71
461.261	23020.53
461.466	21576.72
461.672	20671.51
461.878	21875.72
462.083	20974.61
462.289	20415.52
462.494	19909.67
462.7	19039.28
462.905	18859.06
463.111	19201.07
463.316	19389.49
463.522	18875.45
463.727	19026.99
463.932	18971.7
464.138	18609.21
464.343	18787.38
464.549	18316.35
464.754	18926.64
464.959	18668.6
465.165	18598.97
465.37	17661
465.575	17448.01
465.781	18156.61
465.986	18000.96
466.191	17458.25
466.397	17095.76
466.602	16110.69
466.807	16749.65
467.012	17196.11
467.218	17093.71
467.423	16553.05
467.628	16780.37
467.833	17441.87
468.038	16823.38
468.244	16223.33
468.449	16847.96
468.654	16503.9
468.859	16403.55
