Data from USB4F104151__62__12-27-41-032.txt Node

Date: Fri Mar 14 12:27:41 EDT 2025
User: louis
Spectrometer: USB4F10415
Trigger mode: 4
Integration Time (sec): 2.000000E-2
Scans to average: 1
Electric dark correction enabled: true
Nonlinearity correction enabled: false
Boxcar width: 0
XAxis mode: Wavelengths
Number of Pixels in Spectrum: 3648
>>>>>Begin Spectral Data<<<<<
178.204	-28.84
178.424	-28.84
178.644	-28.84
178.864	-63.66
179.084	-116.9
179.304	36.69
179.524	-22.7
179.744	-2.22
179.964	75.6
180.184	-24.75
180.404	-80.04
180.624	44.88
180.844	10.07
181.064	-2.22
181.283	10.07
181.503	-55.47
181.723	10.07
181.943	-10.41
182.163	69.46
182.383	8.02
182.602	53.08
182.822	83.8
183.042	-4.27
183.262	14.17
183.482	38.74
183.701	-30.89
183.921	24.4
184.141	18.26
184.361	36.69
184.58	73.56
184.8	75.6
185.02	26.45
185.239	16.21
185.459	83.8
185.679	59.22
185.898	22.36
186.118	83.8
186.338	22.36
186.557	59.22
186.777	77.65
186.997	34.64
187.216	69.46
187.436	38.74
187.655	85.84
187.875	30.55
188.095	65.36
188.314	91.99
188.534	67.41
188.753	20.31
188.973	81.75
189.192	55.12
189.412	71.51
189.631	32.6
189.851	3.93
190.07	106.32
190.29	-10.41
190.509	-16.55
190.729	-18.6
190.948	36.69
191.168	163.67
191.387	57.17
191.607	46.93
191.826	3.93
192.045	46.93
192.265	44.88
192.484	81.75
192.704	-34.99
192.923	46.93
193.142	63.32
193.362	32.6
193.581	61.27
193.8	85.84
194.02	55.12
194.239	77.65
194.458	48.98
194.678	46.93
194.897	83.8
195.116	100.18
195.335	-28.84
195.555	-12.46
195.774	-8.36
195.993	130.9
196.212	26.45
196.432	3.93
196.651	48.98
196.87	180.05
197.089	124.76
197.308	53.08
197.528	65.36
197.747	-6.31
197.966	57.17
198.185	59.22
198.404	69.46
198.623	26.45
198.842	26.45
199.062	57.17
199.281	38.74
199.5	-28.84
199.719	48.98
199.938	22.36
200.157	77.65
200.376	46.93
200.595	126.8
200.814	36.69
201.033	55.12
201.252	40.79
201.471	18.26
201.69	61.27
201.909	32.6
202.128	18.26
202.347	26.45
202.566	79.7
202.785	59.22
203.004	-14.51
203.223	110.42
203.442	26.45
203.661	83.8
203.879	65.36
204.098	87.89
204.317	77.65
204.536	53.08
204.755	42.84
204.974	22.36
205.193	36.69
205.411	104.28
205.63	89.94
205.849	40.79
206.068	67.41
206.287	71.51
206.505	55.12
206.724	32.6
206.943	30.55
207.162	87.89
207.381	-0.17
207.599	36.69
207.818	106.32
208.037	141.14
208.255	61.27
208.474	42.84
208.693	-16.55
208.911	57.17
209.13	16.21
209.349	40.79
209.567	-47.27
209.786	81.75
210.005	59.22
210.223	116.56
210.442	32.6
210.661	51.03
210.879	1.88
211.098	10.07
211.316	46.93
211.535	67.41
211.753	53.08
211.972	30.55
212.191	40.79
212.409	12.12
212.628	69.46
212.846	69.46
213.065	24.4
213.283	61.27
213.502	-4.27
213.72	77.65
213.938	38.74
214.157	44.88
214.375	42.84
214.594	44.88
214.812	12.12
215.031	65.36
215.249	14.17
215.467	132.95
215.686	104.28
215.904	87.89
216.122	83.8
216.341	42.84
216.559	61.27
216.778	75.6
216.996	22.36
217.214	77.65
217.432	40.79
217.651	-20.65
217.869	51.03
218.087	10.07
218.306	59.22
218.524	32.6
218.742	40.79
218.96	32.6
219.179	87.89
219.397	81.75
219.615	106.32
219.833	100.18
220.051	-30.89
220.27	55.12
220.488	51.03
220.706	51.03
220.924	-4.27
221.142	26.45
221.36	-92.33
221.578	63.32
221.796	26.45
222.015	-12.46
222.233	26.45
222.451	128.85
222.669	42.84
222.887	85.84
223.105	-20.65
223.323	63.32
223.541	71.51
223.759	69.46
223.977	67.41
224.195	-4.27
224.413	14.17
224.631	89.94
224.849	91.99
225.067	26.45
225.285	44.88
225.503	-16.55
225.721	-39.08
225.939	71.51
226.157	81.75
226.375	79.7
226.592	96.08
226.81	44.88
227.028	34.64
227.246	114.52
227.464	83.8
227.682	3.93
227.9	122.71
228.117	83.8
228.335	36.69
228.553	102.23
228.771	36.69
228.989	28.5
229.206	48.98
229.424	18.26
229.642	18.26
229.86	96.08
230.077	22.36
230.295	145.24
230.513	102.23
230.731	34.64
230.948	77.65
231.166	81.75
231.384	98.13
231.601	102.23
231.819	57.17
232.037	120.66
232.254	85.84
232.472	48.98
232.689	12.12
232.907	44.88
233.125	38.74
233.342	65.36
233.56	-26.79
233.777	38.74
233.995	69.46
234.213	69.46
234.43	34.64
234.648	34.64
234.865	8.02
235.083	106.32
235.3	28.5
235.518	-6.31
235.735	44.88
235.953	22.36
236.17	126.8
236.388	-0.17
236.605	22.36
236.822	67.41
237.04	42.84
237.257	-43.18
237.475	-16.55
237.692	-34.99
237.909	85.84
238.127	73.56
238.344	79.7
238.562	73.56
238.779	28.5
238.996	79.7
239.214	79.7
239.431	-8.36
239.648	24.4
239.865	36.69
240.083	26.45
240.3	-12.46
240.517	46.93
240.735	20.31
240.952	112.47
241.169	51.03
241.386	34.64
241.603	10.07
241.821	28.5
242.038	65.36
242.255	61.27
242.472	28.5
242.689	26.45
242.907	139.09
243.124	112.47
243.341	24.4
243.558	71.51
243.775	57.17
243.992	1.88
244.209	14.17
244.426	96.08
244.643	100.18
244.86	40.79
245.078	-34.99
245.295	69.46
245.512	96.08
245.729	32.6
245.946	59.22
246.163	55.12
246.38	65.36
246.597	22.36
246.814	46.93
247.031	59.22
247.248	16.21
247.464	32.6
247.681	22.36
247.898	96.08
248.115	24.4
248.332	75.6
248.549	98.13
248.766	55.12
248.983	53.08
249.2	73.56
249.417	53.08
249.633	65.36
249.85	87.89
250.067	26.45
250.284	44.88
250.501	26.45
250.717	85.84
250.934	12.12
251.151	44.88
251.368	48.98
251.585	151.38
251.801	81.75
252.018	16.21
252.235	69.46
252.451	-24.75
252.668	28.5
252.885	44.88
253.102	14.17
253.318	8.02
253.535	14.17
253.752	30.55
253.968	32.6
254.185	42.84
254.401	12.12
254.618	67.41
254.835	32.6
255.051	67.41
255.268	48.98
255.484	34.64
255.701	38.74
255.917	55.12
256.134	28.5
256.351	36.69
256.567	24.4
256.784	44.88
257	-14.51
257.217	85.84
257.433	65.36
257.65	42.84
257.866	67.41
258.082	102.23
258.299	40.79
258.515	85.84
258.732	-2.22
258.948	-30.89
259.165	89.94
259.381	91.99
259.597	65.36
259.814	46.93
260.03	104.28
260.246	38.74
260.463	18.26
260.679	-20.65
260.895	44.88
261.112	48.98
261.328	32.6
261.544	100.18
261.761	36.69
261.977	53.08
262.193	40.79
262.409	10.07
262.626	26.45
262.842	-0.17
263.058	73.56
263.274	69.46
263.49	51.03
263.707	-14.51
263.923	67.41
264.139	40.79
264.355	20.31
264.571	-4.27
264.787	30.55
265.004	44.88
265.22	38.74
265.436	48.98
265.652	48.98
265.868	67.41
266.084	32.6
266.3	10.07
266.516	-14.51
266.732	108.37
266.948	34.64
267.164	110.42
267.38	40.79
267.596	24.4
267.812	40.79
268.028	-4.27
268.244	51.03
268.46	85.84
268.676	98.13
268.892	65.36
269.108	8.02
269.324	-10.41
269.54	30.55
269.756	26.45
269.972	-63.66
270.188	8.02
270.403	51.03
270.619	10.07
270.835	98.13
271.051	40.79
271.267	40.79
271.483	71.51
271.698	73.56
271.914	57.17
272.13	77.65
272.346	3.93
272.562	59.22
272.777	-20.65
272.993	-71.85
273.209	79.7
273.425	16.21
273.64	85.84
273.856	57.17
274.072	10.07
274.287	59.22
274.503	26.45
274.719	83.8
274.934	24.4
275.15	-6.31
275.366	94.04
275.581	-12.46
275.797	26.45
276.012	3.93
276.228	130.9
276.444	98.13
276.659	149.33
276.875	51.03
277.09	55.12
277.306	34.64
277.521	51.03
277.737	116.56
277.952	44.88
278.168	53.08
278.383	44.88
278.599	-14.51
278.814	-14.51
279.03	16.21
279.245	112.47
279.461	38.74
279.676	120.66
279.892	-12.46
280.107	61.27
280.322	32.6
280.538	65.36
280.753	73.56
280.969	102.23
281.184	87.89
281.399	110.42
281.615	48.98
281.83	-10.41
282.045	30.55
282.26	-37.03
282.476	12.12
282.691	12.12
282.906	40.79
283.122	71.51
283.337	-43.18
283.552	-0.17
283.767	81.75
283.983	85.84
284.198	-0.17
284.413	65.36
284.628	14.17
284.843	59.22
285.058	36.69
285.274	42.84
285.489	40.79
285.704	46.93
285.919	114.52
286.134	85.84
286.349	77.65
286.564	28.5
286.779	108.37
286.995	10.07
287.21	48.98
287.425	61.27
287.64	48.98
287.855	48.98
288.07	-22.7
288.285	87.89
288.5	51.03
288.715	98.13
288.93	28.5
289.145	38.74
289.36	-2.22
289.575	16.21
289.79	18.26
290.004	42.84
290.219	42.84
290.434	48.98
290.649	40.79
290.864	91.99
291.079	18.26
291.294	59.22
291.509	98.13
291.724	42.84
291.938	51.03
292.153	46.93
292.368	40.79
292.583	91.99
292.798	59.22
293.012	75.6
293.227	34.64
293.442	91.99
293.657	120.66
293.871	112.47
294.086	53.08
294.301	120.66
294.516	77.65
294.73	-0.17
294.945	-22.7
295.16	79.7
295.374	61.27
295.589	106.32
295.804	20.31
296.018	79.7
296.233	59.22
296.447	167.76
296.662	-45.23
296.877	40.79
297.091	69.46
297.306	71.51
297.52	51.03
297.735	51.03
297.949	5.97
298.164	100.18
298.378	28.5
298.593	20.31
298.807	34.64
299.022	69.46
299.236	65.36
299.451	102.23
299.665	102.23
299.88	38.74
300.094	51.03
300.309	57.17
300.523	-39.08
300.737	34.64
300.952	10.07
301.166	46.93
301.381	3.93
301.595	30.55
301.809	81.75
302.024	30.55
302.238	59.22
302.452	18.26
302.667	10.07
302.881	67.41
303.095	-12.46
303.309	118.61
303.524	71.51
303.738	112.47
303.952	32.6
304.166	-20.65
304.381	12.12
304.595	65.36
304.809	16.21
305.023	81.75
305.237	22.36
305.452	118.61
305.666	79.7
305.88	89.94
306.094	73.56
306.308	42.84
306.522	89.94
306.736	53.08
306.95	83.8
307.164	89.94
307.379	3.93
307.593	91.99
307.807	87.89
308.021	20.31
308.235	53.08
308.449	46.93
308.663	40.79
308.877	157.52
309.091	-22.7
309.305	48.98
309.519	22.36
309.733	65.36
309.947	61.27
310.161	112.47
310.374	24.4
310.588	53.08
310.802	26.45
311.016	75.6
311.23	16.21
311.444	81.75
311.658	55.12
311.872	-26.79
312.085	110.42
312.299	69.46
312.513	137.04
312.727	51.03
312.941	51.03
313.154	61.27
313.368	63.32
313.582	71.51
313.796	-10.41
314.009	18.26
314.223	28.5
314.437	98.13
314.651	53.08
314.864	61.27
315.078	98.13
315.292	96.08
315.505	61.27
315.719	-12.46
315.933	48.98
316.146	32.6
316.36	-0.17
316.573	106.32
316.787	73.56
317.001	69.46
317.214	34.64
317.428	114.52
317.641	-14.51
317.855	-8.36
318.068	96.08
318.282	104.28
318.495	55.12
318.709	20.31
318.922	46.93
319.136	-22.7
319.349	75.6
319.563	87.89
319.776	130.9
319.99	-20.65
320.203	75.6
320.417	79.7
320.63	-14.51
320.843	69.46
321.057	34.64
321.27	24.4
321.483	110.42
321.697	55.12
321.91	32.6
322.124	79.7
322.337	48.98
322.55	91.99
322.763	75.6
322.977	114.52
323.19	-69.8
323.403	67.41
323.617	38.74
323.83	71.51
324.043	18.26
324.256	102.23
324.469	-14.51
324.683	34.64
324.896	40.79
325.109	85.84
325.322	-14.51
325.535	94.04
325.748	110.42
325.962	61.27
326.175	14.17
326.388	38.74
326.601	91.99
326.814	42.84
327.027	28.5
327.24	53.08
327.453	16.21
327.666	59.22
327.879	12.12
328.092	114.52
328.305	51.03
328.518	40.79
328.731	40.79
328.944	-12.46
329.157	28.5
329.37	42.84
329.583	135
329.796	73.56
330.009	71.51
330.222	42.84
330.435	75.6
330.648	12.12
330.861	10.07
331.073	81.75
331.286	114.52
331.499	8.02
331.712	51.03
331.925	65.36
332.138	53.08
332.35	63.32
332.563	81.75
332.776	71.51
332.989	20.31
333.202	69.46
333.414	118.61
333.627	16.21
333.84	73.56
334.053	114.52
334.265	20.31
334.478	63.32
334.691	67.41
334.903	34.64
335.116	132.95
335.329	112.47
335.541	100.18
335.754	67.41
335.966	18.26
336.179	79.7
336.392	18.26
336.604	8.02
336.817	26.45
337.029	75.6
337.242	36.69
337.454	83.8
337.667	12.12
337.88	110.42
338.092	-34.99
338.305	42.84
338.517	42.84
338.729	83.8
338.942	106.32
339.154	36.69
339.367	-12.46
339.579	94.04
339.792	-6.31
340.004	75.6
340.217	87.89
340.429	48.98
340.641	8.02
340.854	71.51
341.066	3.93
341.278	67.41
341.491	120.66
341.703	81.75
341.915	38.74
342.128	128.85
342.34	116.56
342.552	36.69
342.764	120.66
342.977	42.84
343.189	51.03
343.401	124.76
343.613	-51.37
343.826	30.55
344.038	32.6
344.25	42.84
344.462	20.31
344.674	48.98
344.886	38.74
345.099	67.41
345.311	-6.31
345.523	14.17
345.735	-0.17
345.947	114.52
346.159	53.08
346.371	71.51
346.583	104.28
346.795	135
347.007	8.02
347.219	118.61
347.431	40.79
347.643	30.55
347.855	44.88
348.067	94.04
348.279	-20.65
348.491	44.88
348.703	100.18
348.915	48.98
349.127	26.45
349.339	71.51
349.551	-10.41
349.763	28.5
349.975	-18.6
350.187	108.37
350.399	114.52
350.61	65.36
350.822	22.36
351.034	89.94
351.246	36.69
351.458	59.22
351.669	61.27
351.881	128.85
352.093	20.31
352.305	137.04
352.517	57.17
352.728	69.46
352.94	51.03
353.152	16.21
353.363	22.36
353.575	57.17
353.787	118.61
353.999	38.74
354.21	98.13
354.422	57.17
354.633	26.45
354.845	59.22
355.057	73.56
355.268	85.84
355.48	75.6
355.692	10.07
355.903	51.03
356.115	-2.22
356.326	22.36
356.538	77.65
356.749	124.76
356.961	53.08
357.172	94.04
357.384	-2.22
357.595	57.17
357.807	63.32
358.018	24.4
358.23	114.52
358.441	163.67
358.653	83.8
358.864	79.7
359.075	57.17
359.287	51.03
359.498	61.27
359.709	102.23
359.921	46.93
360.132	77.65
360.344	44.88
360.555	20.31
360.766	91.99
360.977	26.45
361.189	141.14
361.4	67.41
361.611	34.64
361.823	30.55
362.034	26.45
362.245	122.71
362.456	79.7
362.667	18.26
362.879	100.18
363.09	102.23
363.301	126.8
363.512	32.6
363.723	22.36
363.935	26.45
364.146	112.47
364.357	28.5
364.568	67.41
364.779	55.12
364.99	83.8
365.201	65.36
365.412	77.65
365.623	-24.75
365.834	69.46
366.045	34.64
366.256	106.32
366.467	85.84
366.678	75.6
366.889	48.98
367.1	44.88
367.311	57.17
367.522	51.03
367.733	61.27
367.944	102.23
368.155	55.12
368.366	81.75
368.577	75.6
368.788	77.65
368.999	46.93
369.209	16.21
369.42	143.19
369.631	137.04
369.842	71.51
370.053	96.08
370.264	32.6
370.474	55.12
370.685	42.84
370.896	36.69
371.107	61.27
371.317	122.71
371.528	22.36
371.739	42.84
371.95	12.12
372.16	102.23
372.371	28.5
372.582	26.45
372.792	28.5
373.003	-8.36
373.214	67.41
373.424	71.51
373.635	137.04
373.846	42.84
374.056	102.23
374.267	77.65
374.477	32.6
374.688	22.36
374.898	57.17
375.109	63.32
375.319	38.74
375.53	141.14
375.74	34.64
375.951	12.12
376.161	14.17
376.372	38.74
376.582	48.98
376.793	102.23
377.003	24.4
377.214	51.03
377.424	87.89
377.635	26.45
377.845	63.32
378.055	108.37
378.266	94.04
378.476	139.09
378.686	73.56
378.897	53.08
379.107	-14.51
379.317	36.69
379.528	20.31
379.738	59.22
379.948	42.84
380.158	77.65
380.369	38.74
380.579	53.08
380.789	87.89
380.999	130.9
381.21	132.95
381.42	106.32
381.63	110.42
381.84	122.71
382.05	85.84
382.261	67.41
382.471	16.21
382.681	1.88
382.891	106.32
383.101	89.94
383.311	36.69
383.521	71.51
383.731	55.12
383.941	114.52
384.151	38.74
384.361	-14.51
384.571	71.51
384.781	36.69
384.991	89.94
385.201	30.55
385.411	83.8
385.621	91.99
385.831	65.36
386.041	51.03
386.251	48.98
386.461	83.8
386.671	32.6
386.881	91.99
387.091	38.74
387.301	40.79
387.511	122.71
387.72	32.6
387.93	112.47
388.14	8.02
388.35	14.17
388.56	102.23
388.769	122.71
388.979	108.37
389.189	-0.17
389.399	65.36
389.609	85.84
389.818	22.36
390.028	83.8
390.238	108.37
390.447	44.88
390.657	46.93
390.867	44.88
391.076	22.36
391.286	20.31
391.496	65.36
391.705	79.7
391.915	188.24
392.125	118.61
392.334	139.09
392.544	98.13
392.753	53.08
392.963	77.65
393.172	16.21
393.382	-0.17
393.591	135
393.801	128.85
394.01	122.71
394.22	3.93
394.429	75.6
394.639	28.5
394.848	89.94
395.058	77.65
395.267	91.99
395.477	5.97
395.686	67.41
395.895	108.37
396.105	55.12
396.314	110.42
396.524	3.93
396.733	42.84
396.942	126.8
397.152	12.12
397.361	98.13
397.57	83.8
397.78	98.13
397.989	137.04
398.198	110.42
398.407	122.71
398.617	67.41
398.826	110.42
399.035	55.12
399.244	169.81
399.453	87.89
399.663	85.84
399.872	108.37
400.081	89.94
400.29	114.52
400.499	85.84
400.708	135
400.917	98.13
401.127	-2.22
401.336	63.32
401.545	165.71
401.754	157.52
401.963	126.8
402.172	116.56
402.381	171.86
402.59	8.02
402.799	65.36
403.008	141.14
403.217	124.76
403.426	141.14
403.635	130.9
403.844	157.52
404.053	194.39
404.262	124.76
404.471	149.33
404.68	141.14
404.888	106.32
405.097	155.47
405.306	126.8
405.515	118.61
405.724	173.91
405.933	212.82
406.142	171.86
406.35	69.46
406.559	108.37
406.768	149.33
406.977	120.66
407.185	167.76
407.394	145.24
407.603	202.58
407.812	130.9
408.02	208.72
408.229	151.38
408.438	253.78
408.646	122.71
408.855	196.43
409.064	216.91
409.272	298.83
409.481	186.19
409.69	298.83
409.898	237.39
410.107	302.93
410.315	253.78
410.524	237.39
410.733	194.39
410.941	313.17
411.15	401.23
411.358	313.17
411.567	362.32
411.775	345.94
411.984	327.5
412.192	407.38
412.401	284.5
412.609	462.67
412.818	397.14
413.026	309.07
413.234	372.56
413.443	450.38
413.651	429.9
413.86	462.67
414.068	503.63
414.276	483.15
414.485	472.91
414.693	511.82
414.901	571.21
415.11	538.45
415.318	536.4
415.526	626.51
415.734	673.61
415.943	644.94
416.151	601.93
416.359	640.84
416.567	653.13
416.776	706.38
416.984	763.72
417.192	733
417.4	776.01
417.608	784.2
417.817	714.57
418.025	802.63
418.233	892.74
418.441	896.84
418.649	894.79
418.857	923.46
419.065	984.9
419.273	999.24
419.481	1009.48
419.689	1095.49
419.897	1079.11
420.105	1146.69
420.313	1134.4
420.521	1214.27
420.729	1279.81
420.937	1204.03
421.145	1265.47
421.353	1355.58
421.561	1470.27
421.769	1455.94
421.977	1531.71
422.185	1523.52
422.393	1668.92
422.601	1652.54
422.809	1730.36
423.017	1646.4
423.224	1859.38
423.432	1892.15
423.64	1820.47
423.848	1972.02
424.056	1992.5
424.263	2133.81
424.471	2080.57
424.679	2238.26
424.887	2391.86
425.094	2309.94
425.302	2309.94
425.51	2510.64
425.718	2555.69
425.925	2541.36
426.133	2680.62
426.341	2725.68
426.548	2928.42
426.756	2819.88
426.964	2946.86
427.171	3122.98
427.379	3305.25
427.586	3260.2
427.794	3350.31
428.001	3573.53
428.209	3643.17
428.417	3614.49
428.624	3886.87
428.832	3960.6
429.039	3919.64
429.247	3882.78
429.454	4185.88
429.662	4552.46
429.869	4362
430.076	4497.17
430.284	4329.24
430.491	4501.26
430.699	4845.32
430.906	4898.57
431.114	4980.49
431.321	5154.57
431.528	5129.99
431.736	5596.93
431.943	5881.6
432.15	5756.67
432.358	5863.16
432.565	6010.62
432.772	6016.76
432.979	6389.49
433.187	6176.5
433.394	6555.38
433.601	6919.92
433.808	6979.31
434.016	6981.35
434.223	7055.08
434.43	7579.36
434.637	7583.46
434.844	7970.52
435.052	8206.04
435.259	8060.63
435.466	8134.36
435.673	7956.19
435.88	8539.86
436.087	8961.74
436.294	8992.46
436.501	8818.38
436.708	9045.71
436.915	9397.96
437.122	9750.21
437.329	9735.87
437.537	10108.6
437.743	10143.42
437.95	10161.85
438.157	10712.75
438.364	11120.3
438.571	11134.64
438.778	11194.03
438.985	12154.52
439.192	11488.93
439.399	11921.06
439.606	11869.86
439.813	12375.7
440.02	13143.69
440.227	12717.72
440.433	12787.35
440.64	13158.03
440.847	13158.03
441.054	13315.72
441.261	14536.31
441.467	14110.33
441.674	14452.34
441.881	14972.53
442.088	14849.65
442.294	14804.6
442.501	15261.29
442.708	15642.21
442.914	16385.63
443.121	16860.76
443.328	16545.37
443.534	17532.49
443.741	17061.46
443.948	16735.83
444.154	18247.23
444.361	18249.28
444.568	18136.64
444.774	18058.82
444.981	18200.13
445.187	19177.01
445.394	19820.07
445.6	19512.88
445.807	21278.22
446.013	20366.88
446.22	20854.3
446.426	21648.91
446.633	21605.9
446.839	22554.11
447.046	21495.31
447.252	22793.72
447.459	22984.18
447.665	22806.01
447.871	23975.4
448.078	24896.99
448.284	23930.34
448.491	24489.44
448.697	25384.4
448.903	25798.09
449.11	25707.98
449.316	25486.8
449.522	25927.11
449.728	26609.09
449.935	26883.52
450.141	26725.82
450.347	27487.67
450.553	26617.28
450.76	26996.15
450.966	28134.82
451.172	27850.16
451.378	28462.5
451.584	27786.67
451.791	28372.39
451.997	28396.96
452.203	28732.83
452.409	28411.3
452.615	28741.02
452.821	27454.9
453.027	27334.07
453.233	28609.95
453.44	27698.61
453.646	28200.36
453.852	27999.66
454.058	28814.75
454.264	27938.22
454.47	28259.75
454.676	27692.46
454.882	28820.89
455.088	26029.51
455.294	26574.27
455.5	27295.16
455.705	27485.62
455.911	26062.28
456.117	25535.95
456.323	25296.34
456.529	24038.89
456.735	25302.48
456.941	24757.72
457.147	24047.08
457.352	23166.45
457.558	23059.96
457.764	23272.95
457.97	22824.44
458.176	22097.41
458.381	22175.23
458.587	20948.5
458.793	21165.59
458.999	20035.11
459.204	21392.91
459.41	20868.63
459.616	19457.58
459.821	19498.54
460.027	19478.06
460.233	19060.27
460.438	18093.63
460.644	18351.68
460.85	17221.2
461.055	17303.12
461.261	17188.43
461.466	15869.54
461.672	15433.32
461.878	16639.58
462.083	15449.71
462.289	15242.86
462.494	15156.85
462.7	14497.4
462.905	14083.71
463.111	14472.82
463.316	14530.17
463.522	14446.2
463.727	14427.77
463.932	14184.06
464.138	14003.84
464.343	13989.5
464.549	13590.15
464.754	14296.7
464.959	14016.13
465.165	14128.77
465.37	13309.58
465.575	13133.45
465.781	13467.27
465.986	13600.39
466.191	13260.43
466.397	12732.05
466.602	12336.79
466.807	12957.33
467.012	12654.23
467.218	12705.43
467.423	12531.35
467.628	12783.25
