Data from USB4F104151__17__12-27-05-796.txt Node

Date: Fri Mar 14 12:27:05 EDT 2025
User: louis
Spectrometer: USB4F10415
Trigger mode: 4
Integration Time (sec): 2.000000E-2
Scans to average: 1
Electric dark correction enabled: true
Nonlinearity correction enabled: false
Boxcar width: 0
XAxis mode: Wavelengths
Number of Pixels in Spectrum: 3648
>>>>>Begin Spectral Data<<<<<
178.204	-118.78
178.424	-118.78
178.644	-118.78
178.864	-141.31
179.084	-116.73
179.304	22.53
179.524	-18.43
179.744	59.39
179.964	-14.34
180.184	20.48
180.404	8.19
180.624	40.96
180.844	-49.15
181.064	-71.68
181.283	-24.58
181.503	-47.1
181.723	73.73
181.943	-16.38
182.163	4.1
182.383	-32.77
182.602	-49.15
182.822	-8.19
183.042	40.96
183.262	-12.29
183.482	-8.19
183.701	-40.96
183.921	8.19
184.141	4.1
184.361	24.58
184.58	38.91
184.8	28.67
185.02	47.1
185.239	59.39
185.459	8.19
185.679	43.01
185.898	-28.67
186.118	-14.34
186.338	-67.58
186.557	-45.06
186.777	26.62
186.997	-38.91
187.216	61.44
187.436	14.34
187.655	34.82
187.875	14.34
188.095	-0
188.314	65.53
188.534	28.67
188.753	20.48
188.973	-16.38
189.192	139.26
189.412	-38.91
189.631	53.25
189.851	18.43
190.07	38.91
190.29	45.06
190.509	-8.19
190.729	-30.72
190.948	67.58
191.168	75.77
191.387	-6.14
191.607	2.05
191.826	14.34
192.045	-16.38
192.265	-90.11
192.484	26.62
192.704	10.24
192.923	-49.15
193.142	79.87
193.362	18.43
193.581	30.72
193.8	77.82
194.02	22.53
194.239	-71.68
194.458	43.01
194.678	30.72
194.897	51.2
195.116	26.62
195.335	102.4
195.555	61.44
195.774	18.43
195.993	55.3
196.212	-36.86
196.432	-40.96
196.651	16.38
196.87	-51.2
197.089	81.92
197.308	83.97
197.528	-6.14
197.747	-51.2
197.966	45.06
198.185	18.43
198.404	32.77
198.623	-12.29
198.842	73.73
199.062	45.06
199.281	-18.43
199.5	4.1
199.719	55.3
199.938	18.43
200.157	73.73
200.376	-14.34
200.595	-63.49
200.814	-0
201.033	-40.96
201.252	-4.1
201.471	-18.43
201.69	12.29
201.909	-10.24
202.128	-30.72
202.347	-8.19
202.566	-14.34
202.785	-0
203.004	2.05
203.223	-12.29
203.442	-20.48
203.661	20.48
203.879	12.29
204.098	79.87
204.317	-12.29
204.536	34.82
204.755	10.24
204.974	10.24
205.193	10.24
205.411	30.72
205.63	-18.43
205.849	-43.01
206.068	12.29
206.287	49.15
206.505	-2.05
206.724	-30.72
206.943	-59.39
207.162	90.11
207.381	28.67
207.599	-2.05
207.818	45.06
208.037	-18.43
208.255	18.43
208.474	-16.38
208.693	36.86
208.911	16.38
209.13	49.15
209.349	-26.62
209.567	43.01
209.786	-10.24
210.005	-0
210.223	-36.86
210.442	-40.96
210.661	-71.68
210.879	90.11
211.098	-2.05
211.316	81.92
211.535	-0
211.753	-22.53
211.972	59.39
212.191	-40.96
212.409	47.1
212.628	4.1
212.846	-32.77
213.065	-4.1
213.283	26.62
213.502	8.19
213.72	8.19
213.938	22.53
214.157	-36.86
214.375	32.77
214.594	-2.05
214.812	38.91
215.031	40.96
215.249	-59.39
215.467	-53.25
215.686	32.77
215.904	16.38
216.122	-8.19
216.341	-28.67
216.559	-2.05
216.778	10.24
216.996	-20.48
217.214	18.43
217.432	-4.1
217.651	10.24
217.869	-2.05
218.087	65.53
218.306	-16.38
218.524	49.15
218.742	-30.72
218.96	36.86
219.179	-65.54
219.397	106.49
219.615	24.58
219.833	22.53
220.051	61.44
220.27	20.48
220.488	-24.58
220.706	53.25
220.924	34.82
221.142	-40.96
221.36	57.34
221.578	30.72
221.796	-16.38
222.015	55.3
222.233	16.38
222.451	-2.05
222.669	20.48
222.887	-10.24
223.105	10.24
223.323	36.86
223.541	2.05
223.759	77.82
223.977	47.1
224.195	61.44
224.413	-18.43
224.631	-43.01
224.849	10.24
225.067	45.06
225.285	10.24
225.503	12.29
225.721	-63.49
225.939	12.29
226.157	12.29
226.375	45.06
226.592	-34.82
226.81	38.91
227.028	14.34
227.246	83.97
227.464	-79.87
227.682	-12.29
227.9	-32.77
228.117	8.19
228.335	69.63
228.553	12.29
228.771	28.67
228.989	-55.3
229.206	30.72
229.424	-6.14
229.642	-2.05
229.86	-55.3
230.077	55.3
230.295	2.05
230.513	-4.1
230.731	67.58
230.948	-2.05
231.166	-12.29
231.384	-86.01
231.601	63.49
231.819	16.38
232.037	-24.58
232.254	-34.82
232.472	12.29
232.689	69.63
232.907	38.91
233.125	-40.96
233.342	47.1
233.56	28.67
233.777	38.91
233.995	43.01
234.213	77.82
234.43	26.62
234.648	45.06
234.865	36.86
235.083	40.96
235.3	16.38
235.518	-20.48
235.735	79.87
235.953	26.62
236.17	-18.43
236.388	24.58
236.605	-28.67
236.822	-34.82
237.04	-18.43
237.257	24.58
237.475	-49.15
237.692	18.43
237.909	26.62
238.127	67.58
238.344	-36.86
238.562	71.68
238.779	38.91
238.996	18.43
239.214	-6.14
239.431	-22.53
239.648	18.43
239.865	-47.1
240.083	88.06
240.3	2.05
240.517	43.01
240.735	38.91
240.952	-83.97
241.169	26.62
241.386	8.19
241.603	45.06
241.821	6.14
242.038	-26.62
242.255	6.14
242.472	-71.68
242.689	77.82
242.907	34.82
243.124	20.48
243.341	36.86
243.558	22.53
243.775	-38.91
243.992	-53.25
244.209	14.34
244.426	38.91
244.643	43.01
244.86	26.62
245.078	57.34
245.295	-67.58
245.512	18.43
245.729	-8.19
245.946	38.91
246.163	-30.72
246.38	30.72
246.597	69.63
246.814	-0
247.031	-4.1
247.248	2.05
247.464	86.01
247.681	47.1
247.898	-51.2
248.115	26.62
248.332	-4.1
248.549	-65.54
248.766	30.72
248.983	22.53
249.2	-14.34
249.417	-51.2
249.633	16.38
249.85	38.91
250.067	67.58
250.284	18.43
250.501	18.43
250.717	32.77
250.934	-36.86
251.151	-51.2
251.368	4.1
251.585	-10.24
251.801	61.44
252.018	-10.24
252.235	36.86
252.451	-30.72
252.668	-2.05
252.885	73.73
253.102	2.05
253.318	-12.29
253.535	6.14
253.752	2.05
253.968	-2.05
254.185	2.05
254.401	-26.62
254.618	10.24
254.835	24.58
255.051	69.63
255.268	30.72
255.484	-32.77
255.701	18.43
255.917	92.16
256.134	-10.24
256.351	-8.19
256.567	32.77
256.784	-0
257	-24.58
257.217	55.3
257.433	28.67
257.65	-12.29
257.866	6.14
258.082	65.53
258.299	32.77
258.515	-18.43
258.732	12.29
258.948	53.25
259.165	34.82
259.381	-36.86
259.597	-18.43
259.814	-6.14
260.03	6.14
260.246	12.29
260.463	-22.53
260.679	24.58
260.895	8.19
261.112	10.24
261.328	-18.43
261.544	-18.43
261.761	86.01
261.977	-8.19
262.193	4.1
262.409	51.2
262.626	10.24
262.842	34.82
263.058	22.53
263.274	12.29
263.49	-73.73
263.707	-14.34
263.923	24.58
264.139	20.48
264.355	-28.67
264.571	-79.87
264.787	14.34
265.004	45.06
265.22	14.34
265.436	-16.38
265.652	-47.1
265.868	12.29
266.084	6.14
266.3	34.82
266.516	43.01
266.732	79.87
266.948	20.48
267.164	12.29
267.38	-22.53
267.596	18.43
267.812	30.72
268.028	8.19
268.244	-57.34
268.46	-34.82
268.676	-28.67
268.892	18.43
269.108	38.91
269.324	-26.62
269.54	-61.44
269.756	38.91
269.972	4.1
270.188	12.29
270.403	-0
270.619	43.01
270.835	12.29
271.051	-16.38
271.267	-16.38
271.483	-40.96
271.698	34.82
271.914	-57.34
272.13	59.39
272.346	59.39
272.562	36.86
272.777	26.62
272.993	-14.34
273.209	-10.24
273.425	30.72
273.64	-6.14
273.856	-0
274.072	32.77
274.287	26.62
274.503	-22.53
274.719	65.53
274.934	-2.05
275.15	14.34
275.366	-16.38
275.581	26.62
275.797	-40.96
276.012	-30.72
276.228	16.38
276.444	-22.53
276.659	20.48
276.875	10.24
277.09	-32.77
277.306	20.48
277.521	-28.67
277.737	10.24
277.952	73.73
278.168	57.34
278.383	81.92
278.599	-20.48
278.814	-4.1
279.03	-24.58
279.245	61.44
279.461	6.14
279.676	49.15
279.892	-79.87
280.107	32.77
280.322	-36.86
280.538	-40.96
280.753	49.15
280.969	28.67
281.184	-2.05
281.399	102.4
281.615	12.29
281.83	57.34
282.045	-51.2
282.26	-26.62
282.476	61.44
282.691	67.58
282.906	24.58
283.122	47.1
283.337	49.15
283.552	-12.29
283.767	30.72
283.983	-0
284.198	-40.96
284.413	6.14
284.628	-47.1
284.843	53.25
285.058	71.68
285.274	30.72
285.489	-43.01
285.704	28.67
285.919	-26.62
286.134	96.25
286.349	61.44
286.564	-4.1
286.779	2.05
286.995	-0
287.21	-40.96
287.425	43.01
287.64	8.19
287.855	14.34
288.07	-32.77
288.285	-43.01
288.5	40.96
288.715	-32.77
288.93	6.14
289.145	36.86
289.36	-10.24
289.575	30.72
289.79	4.1
290.004	-28.67
290.219	-57.34
290.434	-18.43
290.649	-4.1
290.864	-34.82
291.079	8.19
291.294	-8.19
291.509	-47.1
291.724	10.24
291.938	-24.58
292.153	-4.1
292.368	-4.1
292.583	12.29
292.798	-16.38
293.012	-8.19
293.227	-4.1
293.442	8.19
293.657	45.06
293.871	124.93
294.086	38.91
294.301	26.62
294.516	-2.05
294.73	-40.96
294.945	-53.25
295.16	34.82
295.374	47.1
295.589	34.82
295.804	-47.1
296.018	-24.58
296.233	90.11
296.447	79.87
296.662	-79.87
296.877	133.12
297.091	20.48
297.306	8.19
297.52	43.01
297.735	38.91
297.949	18.43
298.164	-20.48
298.378	61.44
298.593	8.19
298.807	-22.53
299.022	4.1
299.236	4.1
299.451	-2.05
299.665	-14.34
299.88	59.39
300.094	20.48
300.309	-49.15
300.523	83.97
300.737	-22.53
300.952	2.05
301.166	-55.3
301.381	20.48
301.595	30.72
301.809	-4.1
302.024	32.77
302.238	-14.34
302.452	51.2
302.667	8.19
302.881	26.62
303.095	59.39
303.309	-0
303.524	-14.34
303.738	-4.1
303.952	57.34
304.166	36.86
304.381	-32.77
304.595	51.2
304.809	53.25
305.023	2.05
305.237	16.38
305.452	34.82
305.666	45.06
305.88	8.19
306.094	18.43
306.308	36.86
306.522	36.86
306.736	-4.1
306.95	-6.14
307.164	40.96
307.379	-4.1
307.593	28.67
307.807	-12.29
308.021	-16.38
308.235	30.72
308.449	51.2
308.663	30.72
308.877	45.06
309.091	10.24
309.305	-2.05
309.519	8.19
309.733	51.2
309.947	-6.14
310.161	-22.53
310.374	-0
310.588	-8.19
310.802	-12.29
311.016	-43.01
311.23	-45.06
311.444	4.1
311.658	73.73
311.872	47.1
312.085	81.92
312.299	47.1
312.513	51.2
312.727	59.39
312.941	26.62
313.154	-2.05
313.368	-6.14
313.582	40.96
313.796	-47.1
314.009	-28.67
314.223	34.82
314.437	57.34
314.651	51.2
314.864	-32.77
315.078	-10.24
315.292	4.1
315.505	4.1
315.719	36.86
315.933	-2.05
316.146	-20.48
316.36	-65.54
316.573	-4.1
316.787	-59.39
317.001	45.06
317.214	6.14
317.428	71.68
317.641	4.1
317.855	12.29
318.068	30.72
318.282	24.58
318.495	63.49
318.709	47.1
318.922	-12.29
319.136	57.34
319.349	-6.14
319.563	63.49
319.776	69.63
319.99	-20.48
320.203	-4.1
320.417	30.72
320.63	10.24
320.843	63.49
321.057	49.15
321.27	6.14
321.483	-24.58
321.697	57.34
321.91	-4.1
322.124	24.58
322.337	55.3
322.55	36.86
322.763	-51.2
322.977	49.15
323.19	26.62
323.403	30.72
323.617	-8.19
323.83	71.68
324.043	-38.91
324.256	53.25
324.469	-28.67
324.683	86.01
324.896	2.05
325.109	-6.14
325.322	-34.82
325.535	59.39
325.748	63.49
325.962	-8.19
326.175	32.77
326.388	-10.24
326.601	28.67
326.814	32.77
327.027	59.39
327.24	-32.77
327.453	20.48
327.666	53.25
327.879	34.82
328.092	43.01
328.305	-36.86
328.518	51.2
328.731	12.29
328.944	-22.53
329.157	36.86
329.37	-10.24
329.583	137.21
329.796	-4.1
330.009	-26.62
330.222	-18.43
330.435	30.72
330.648	30.72
330.861	-4.1
331.073	32.77
331.286	-20.48
331.499	61.44
331.712	59.39
331.925	10.24
332.138	30.72
332.35	61.44
332.563	-61.44
332.776	61.44
332.989	-22.53
333.202	-4.1
333.414	45.06
333.627	18.43
333.84	40.96
334.053	14.34
334.265	24.58
334.478	20.48
334.691	4.1
334.903	2.05
335.116	51.2
335.329	34.82
335.541	16.38
335.754	16.38
335.966	-73.73
336.179	120.83
336.392	-43.01
336.604	40.96
336.817	26.62
337.029	-12.29
337.242	26.62
337.454	-8.19
337.667	-30.72
337.88	55.3
338.092	28.67
338.305	4.1
338.517	-38.91
338.729	49.15
338.942	88.06
339.154	24.58
339.367	-28.67
339.579	47.1
339.792	2.05
340.004	28.67
340.217	-51.2
340.429	12.29
340.641	24.58
340.854	-20.48
341.066	14.34
341.278	92.16
341.491	28.67
341.703	16.38
341.915	-16.38
342.128	-6.14
342.34	45.06
342.552	47.1
342.764	24.58
342.977	6.14
343.189	-28.67
343.401	28.67
343.613	-8.19
343.826	30.72
344.038	-40.96
344.25	-26.62
344.462	69.63
344.674	8.19
344.886	32.77
345.099	28.67
345.311	69.63
345.523	10.24
345.735	6.14
345.947	12.29
346.159	32.77
346.371	22.53
346.583	-36.86
346.795	133.12
347.007	34.82
347.219	34.82
347.431	-14.34
347.643	43.01
347.855	34.82
348.067	28.67
348.279	24.58
348.491	4.1
348.703	12.29
348.915	-0
349.127	-4.1
349.339	-0
349.551	-81.92
349.763	69.63
349.975	-8.19
350.187	59.39
350.399	43.01
350.61	-2.05
350.822	32.77
351.034	53.25
351.246	26.62
351.458	43.01
351.669	141.31
351.881	47.1
352.093	77.82
352.305	55.3
352.517	53.25
352.728	126.97
352.94	12.29
353.152	36.86
353.363	51.2
353.575	81.92
353.787	28.67
353.999	81.92
354.21	24.58
354.422	-51.2
354.633	63.49
354.845	-10.24
355.057	-38.91
355.268	12.29
355.48	53.25
355.692	-14.34
355.903	4.1
356.115	28.67
356.326	-38.91
356.538	71.68
356.749	-30.72
356.961	104.45
357.172	-16.38
357.384	6.14
357.595	102.4
357.807	-4.1
358.018	-90.11
358.23	38.91
358.441	-28.67
358.653	30.72
358.864	14.34
359.075	34.82
359.287	61.44
359.498	55.3
359.709	6.14
359.921	12.29
360.132	8.19
360.344	26.62
360.555	-0
360.766	18.43
360.977	53.25
361.189	-20.48
361.4	47.1
361.611	57.34
361.823	-61.44
362.034	53.25
362.245	-20.48
362.456	59.39
362.667	36.86
362.879	26.62
363.09	8.19
363.301	12.29
363.512	45.06
363.723	122.88
363.935	36.86
364.146	-14.34
364.357	22.53
364.568	75.77
364.779	53.25
364.99	90.11
365.201	-0
365.412	67.58
365.623	-47.1
365.834	65.53
366.045	22.53
366.256	73.73
366.467	34.82
366.678	75.77
366.889	-55.3
367.1	96.25
367.311	28.67
367.522	24.58
367.733	-65.54
367.944	67.58
368.155	45.06
368.366	81.92
368.577	-6.14
368.788	28.67
368.999	40.96
369.209	38.91
369.42	2.05
369.631	45.06
369.842	83.97
370.053	45.06
370.264	79.87
370.474	32.77
370.685	10.24
370.896	61.44
371.107	55.3
371.317	49.15
371.528	8.19
371.739	106.49
371.95	40.96
372.16	83.97
372.371	32.77
372.582	-4.1
372.792	-28.67
373.003	-0
373.214	77.82
373.424	6.14
373.635	-20.48
373.846	-18.43
374.056	63.49
374.267	67.58
374.477	67.58
374.688	45.06
374.898	69.63
375.109	34.82
375.319	4.1
375.53	94.21
375.74	6.14
375.951	36.86
376.161	-14.34
376.372	10.24
376.582	36.86
376.793	8.19
377.003	65.53
377.214	55.3
377.424	51.2
377.635	141.31
377.845	49.15
378.055	102.4
378.266	34.82
378.476	94.21
378.686	73.73
378.897	55.3
379.107	55.3
379.317	30.72
379.528	14.34
379.738	110.59
379.948	-38.91
380.158	100.35
380.369	18.43
380.579	47.1
380.789	75.77
380.999	45.06
381.21	55.3
381.42	43.01
381.63	53.25
381.84	-32.77
382.05	-10.24
382.261	36.86
382.471	88.06
382.681	81.92
382.891	24.58
383.101	69.63
383.311	-20.48
383.521	86.01
383.731	63.49
383.941	8.19
384.151	12.29
384.361	24.58
384.571	55.3
384.781	63.49
384.991	45.06
385.201	110.59
385.411	90.11
385.621	98.3
385.831	63.49
386.041	69.63
386.251	43.01
386.461	135.17
386.671	73.73
386.881	40.96
387.091	-8.19
387.301	86.01
387.511	102.4
387.72	-28.67
387.93	86.01
388.14	32.77
388.35	51.2
388.56	16.38
388.769	45.06
388.979	20.48
389.189	67.58
389.399	-16.38
389.609	73.73
389.818	24.58
390.028	-16.38
390.238	-2.05
390.447	-55.3
390.657	47.1
390.867	32.77
391.076	4.1
391.286	47.1
391.496	61.44
391.705	149.5
391.915	77.82
392.125	51.2
392.334	126.97
392.544	88.06
392.753	86.01
392.963	32.77
393.172	137.21
393.382	4.1
393.591	67.58
393.801	63.49
394.01	126.97
394.22	81.92
394.429	122.88
394.639	49.15
394.848	108.54
395.058	139.26
395.267	110.59
395.477	26.62
395.686	45.06
395.895	151.55
396.105	135.17
396.314	18.43
396.524	55.3
396.733	55.3
396.942	75.77
397.152	71.68
397.361	135.17
397.57	118.78
397.78	43.01
397.989	114.69
398.198	137.21
398.407	55.3
398.617	133.12
398.826	120.83
399.035	47.1
399.244	153.6
399.453	90.11
399.663	67.58
399.872	100.35
400.081	96.25
400.29	120.83
400.499	102.4
400.708	122.88
400.917	131.07
401.127	40.96
401.336	73.73
401.545	47.1
401.754	96.25
401.963	49.15
402.172	100.35
402.381	145.41
402.59	69.63
402.799	94.21
403.008	172.03
403.217	16.38
403.426	137.21
403.635	55.3
403.844	100.35
404.053	100.35
404.262	96.25
404.471	194.56
404.68	88.06
404.888	258.04
405.097	151.55
405.306	120.83
405.515	120.83
405.724	143.36
405.933	204.8
406.142	190.46
406.35	174.08
406.559	151.55
406.768	71.68
406.977	260.09
407.185	192.51
407.394	221.18
407.603	172.03
407.812	233.47
408.02	258.04
408.229	264.19
408.438	210.94
408.646	239.61
408.855	253.95
409.064	245.76
409.272	161.79
409.481	385.02
409.69	325.63
409.898	256
410.107	331.77
410.315	339.96
410.524	268.28
410.733	315.39
410.941	311.29
411.15	389.11
411.358	378.87
411.567	380.92
411.775	444.41
411.984	440.31
412.192	466.94
412.401	413.69
412.609	483.32
412.818	489.46
413.026	509.94
413.234	444.41
413.443	550.9
413.651	569.34
413.86	645.11
414.068	624.63
414.276	667.64
414.485	569.34
414.693	708.6
414.901	690.17
415.11	743.41
415.318	770.04
415.526	788.47
415.734	782.32
415.943	763.89
416.151	876.53
416.359	935.92
416.567	890.87
416.776	839.67
416.984	962.55
417.192	1011.7
417.4	1075.18
417.608	997.36
417.817	1048.56
418.025	966.64
418.233	1228.78
418.441	1153.01
418.649	1171.44
418.857	1337.32
419.065	1343.47
419.273	1331.18
419.481	1429.48
419.689	1521.64
419.897	1564.65
420.105	1578.98
420.313	1619.94
420.521	1626.09
420.729	1648.61
420.937	1685.48
421.145	1890.28
421.353	1982.43
421.561	1961.95
421.769	2086.88
421.977	2125.79
422.185	2123.74
422.393	2283.49
422.601	2299.87
422.809	2361.31
423.017	2449.37
423.224	2496.47
423.432	2654.17
423.64	2713.56
423.848	2930.64
424.056	2818
424.263	3028.95
424.471	3078.1
424.679	3069.91
424.887	3254.22
425.094	3293.13
425.302	3463.12
425.51	3579.85
425.718	3588.04
425.925	3614.66
426.133	3839.94
426.341	4097.99
426.548	4227.01
426.756	4177.86
426.964	4140.99
427.171	4569.02
427.379	4517.82
427.586	4763.58
427.794	4882.36
428.001	4960.18
428.209	5171.12
428.417	5291.95
428.624	5726.12
428.832	5547.95
429.039	5435.31
429.247	5664.68
429.454	6025.12
429.662	6375.33
429.869	6045.6
430.076	6614.94
430.284	6279.07
430.491	6891.41
430.699	6954.9
430.906	6997.91
431.114	7149.46
431.321	7321.49
431.528	7368.59
431.736	7962.5
431.943	8175.49
432.15	7997.32
432.358	8120.2
432.565	8529.79
432.772	8494.97
432.979	9201.52
433.187	9056.12
433.394	9269.11
433.601	9854.83
433.808	9781.1
434.016	9680.75
434.223	10215.27
434.43	10993.5
434.637	10862.43
434.844	11425.62
435.052	11759.44
435.259	11431.76
435.466	11698
435.673	11405.14
435.88	12234.57
436.087	12998.46
436.294	12857.15
436.501	12527.42
436.708	13174.58
436.915	13446.96
437.122	13829.93
437.329	13944.62
437.537	14477.09
437.743	14778.14
437.95	14423.84
438.157	15226.65
438.364	15882
438.571	15628.05
438.778	15943.44
438.985	17127.16
439.192	16719.62
439.399	17114.87
439.606	16666.37
439.813	17932.01
440.02	18648.8
440.227	18210.54
440.433	18466.53
440.64	18919.14
440.847	18738.91
441.054	19400.41
441.261	20768.45
441.467	20428.49
441.674	20772.55
441.881	21542.58
442.088	21495.48
442.294	21067.45
442.501	22050.48
442.708	22378.15
442.914	23183.01
443.121	24090.26
443.328	23482.01
443.534	24903.3
443.741	24436.36
443.948	24364.68
444.154	26066.55
444.361	25878.13
444.568	26093.17
444.774	25839.22
444.981	26304.11
445.187	26992.23
445.394	28372.56
445.6	28167.76
445.807	30658.09
446.013	29314.62
446.22	30199.35
446.426	30670.38
446.633	31229.48
446.839	32536.08
447.046	31061.54
447.252	32658.96
447.459	32544.27
447.665	32390.67
447.871	33814.01
448.078	35759.58
448.284	33768.96
448.491	34502.13
448.697	35868.12
448.903	36697.55
449.11	36734.42
449.316	36183.51
449.522	36967.88
449.728	37889.47
449.935	38264.25
450.141	38495.67
450.347	38981.04
450.553	37793.22
450.76	38350.26
450.966	39458.21
451.172	39417.25
451.378	39978.4
451.584	39646.63
451.791	40680.85
451.997	40127.9
452.203	40818.07
452.409	40902.03
452.615	40439.19
452.821	39425.45
453.027	38974.89
453.233	41010.57
453.44	39251.37
453.646	39482.79
453.852	40097.18
454.058	40437.14
454.264	39349.67
454.47	40005.02
454.676	39482.79
454.882	40551.83
455.088	37041.61
455.294	37475.78
455.5	38280.63
455.705	38733.23
455.911	37371.33
456.117	36554.19
456.323	36054.49
456.529	34350.58
456.735	35632.61
456.941	34930.15
457.147	33889.79
457.352	32591.37
457.558	32609.81
457.764	32378.39
457.97	31991.32
458.176	31708.7
458.381	31639.07
458.587	30019.13
458.793	30062.13
458.999	28642.89
459.204	30273.07
459.41	29380.16
459.616	27700.83
459.821	27561.56
460.027	27600.47
460.233	27025
460.438	25570.94
460.644	25931.38
460.85	24518.28
461.055	24577.67
461.261	24426.12
461.466	22609.57
461.672	21915.31
461.878	23518.87
462.083	21741.24
462.289	21411.51
462.494	21259.96
462.7	20336.33
462.905	19992.27
463.111	20379.34
463.316	20416.2
463.522	20219.6
463.727	20000.46
463.932	20240.08
464.138	19881.68
464.343	20029.13
464.549	19404.5
464.754	20033.23
464.959	19762.9
465.165	20031.18
465.37	18947.81
465.575	18450.15
465.781	19199.71
465.986	19418.84
466.191	18527.97
466.397	18251.5
466.602	17463.03
466.807	18104.04
467.012	18177.77
467.218	17954.54
467.423	17911.53
467.628	17989.36
