Data from USB4F104151__43__12-27-24-722.txt Node

Date: Fri Mar 14 12:27:24 EDT 2025
User: louis
Spectrometer: USB4F10415
Trigger mode: 4
Integration Time (sec): 2.000000E-2
Scans to average: 1
Electric dark correction enabled: true
Nonlinearity correction enabled: false
Boxcar width: 0
XAxis mode: Wavelengths
Number of Pixels in Spectrum: 3648
>>>>>Begin Spectral Data<<<<<
178.204	-40.96
178.424	-40.96
178.644	-40.96
178.864	-104.45
179.084	-116.73
179.304	57.34
179.524	12.29
179.744	51.2
179.964	-45.06
180.184	-28.67
180.404	45.06
180.624	-83.97
180.844	-55.3
181.064	-38.91
181.283	14.34
181.503	34.82
181.723	36.86
181.943	34.82
182.163	30.72
182.383	22.53
182.602	86.01
182.822	47.1
183.042	-40.96
183.262	32.77
183.482	0
183.701	18.43
183.921	-14.34
184.141	61.44
184.361	20.48
184.58	38.91
184.8	38.91
185.02	8.19
185.239	94.21
185.459	-38.91
185.679	38.91
185.898	-32.77
186.118	-24.58
186.338	59.39
186.557	55.3
186.777	-24.58
186.997	-6.14
187.216	-51.2
187.436	18.43
187.655	-8.19
187.875	69.63
188.095	-40.96
188.314	47.1
188.534	40.96
188.753	30.72
188.973	86.01
189.192	53.25
189.412	45.06
189.631	77.82
189.851	-2.05
190.07	28.67
190.29	2.05
190.509	4.1
190.729	-6.14
190.948	6.14
191.168	90.11
191.387	28.67
191.607	-20.48
191.826	-8.19
192.045	-36.86
192.265	-16.38
192.484	45.06
192.704	55.3
192.923	6.14
193.142	51.2
193.362	14.34
193.581	38.91
193.8	8.19
194.02	-30.72
194.239	26.62
194.458	14.34
194.678	-8.19
194.897	75.77
195.116	63.49
195.335	-14.34
195.555	-45.06
195.774	-2.05
195.993	55.3
196.212	28.67
196.432	2.05
196.651	133.12
196.87	-2.05
197.089	51.2
197.308	36.86
197.528	-30.72
197.747	-4.1
197.966	63.49
198.185	53.25
198.404	-26.62
198.623	120.83
198.842	20.48
199.062	129.02
199.281	149.5
199.5	-24.58
199.719	-14.34
199.938	22.53
200.157	61.44
200.376	108.54
200.595	73.73
200.814	14.34
201.033	-22.53
201.252	34.82
201.471	102.4
201.69	77.82
201.909	51.2
202.128	-6.14
202.347	-2.05
202.566	45.06
202.785	-14.34
203.004	14.34
203.223	32.77
203.442	86.01
203.661	6.14
203.879	22.53
204.098	114.69
204.317	-14.34
204.536	-10.24
204.755	-12.29
204.974	28.67
205.193	51.2
205.411	79.87
205.63	-30.72
205.849	47.1
206.068	14.34
206.287	14.34
206.505	51.2
206.724	53.25
206.943	2.05
207.162	-63.49
207.381	0
207.599	-30.72
207.818	14.34
208.037	75.77
208.255	-2.05
208.474	49.15
208.693	-8.19
208.911	59.39
209.13	-16.38
209.349	61.44
209.567	63.49
209.786	6.14
210.005	18.43
210.223	26.62
210.442	26.62
210.661	28.67
210.879	14.34
211.098	-30.72
211.316	94.21
211.535	36.86
211.753	75.77
211.972	16.38
212.191	-12.29
212.409	51.2
212.628	-18.43
212.846	16.38
213.065	16.38
213.283	86.01
213.502	-34.82
213.72	28.67
213.938	10.24
214.157	4.1
214.375	-12.29
214.594	0
214.812	32.77
215.031	16.38
215.249	6.14
215.467	-4.1
215.686	-30.72
215.904	30.72
216.122	-2.05
216.341	88.06
216.559	26.62
216.778	34.82
216.996	36.86
217.214	30.72
217.432	61.44
217.651	-16.38
217.869	18.43
218.087	-53.25
218.306	47.1
218.524	51.2
218.742	-8.19
218.96	4.1
219.179	6.14
219.397	12.29
219.615	-10.24
219.833	-16.38
220.051	-36.86
220.27	28.67
220.488	36.86
220.706	51.2
220.924	49.15
221.142	88.06
221.36	43.01
221.578	22.53
221.796	-63.49
222.015	22.53
222.233	-4.1
222.451	116.73
222.669	6.14
222.887	55.3
223.105	24.58
223.323	14.34
223.541	36.86
223.759	-36.86
223.977	-8.19
224.195	69.63
224.413	16.38
224.631	-10.24
224.849	-4.1
225.067	28.67
225.285	53.25
225.503	40.96
225.721	-20.48
225.939	-2.05
226.157	28.67
226.375	53.25
226.592	-98.3
226.81	53.25
227.028	-12.29
227.246	90.11
227.464	-6.14
227.682	14.34
227.9	24.58
228.117	34.82
228.335	-28.67
228.553	73.73
228.771	65.54
228.989	81.92
229.206	75.77
229.424	63.49
229.642	51.2
229.86	-30.72
230.077	63.49
230.295	22.53
230.513	16.38
230.731	108.54
230.948	94.21
231.166	2.05
231.384	-2.05
231.601	26.62
231.819	86.01
232.037	16.38
232.254	79.87
232.472	63.49
232.689	-26.62
232.907	63.49
233.125	16.38
233.342	-2.05
233.56	-16.38
233.777	16.38
233.995	55.3
234.213	53.25
234.43	-34.82
234.648	32.77
234.865	43.01
235.083	34.82
235.3	53.25
235.518	116.73
235.735	69.63
235.953	59.39
236.17	18.43
236.388	36.86
236.605	69.63
236.822	28.67
237.04	38.91
237.257	30.72
237.475	63.49
237.692	69.63
237.909	81.92
238.127	-28.67
238.344	67.58
238.562	-8.19
238.779	-53.25
238.996	-24.58
239.214	18.43
239.431	-12.29
239.648	55.3
239.865	12.29
240.083	69.63
240.3	28.67
240.517	-6.14
240.735	34.82
240.952	-4.1
241.169	94.21
241.386	59.39
241.603	40.96
241.821	10.24
242.038	71.68
242.255	49.15
242.472	47.1
242.689	49.15
242.907	118.78
243.124	16.38
243.341	-88.06
243.558	14.34
243.775	34.82
243.992	8.19
244.209	61.44
244.426	55.3
244.643	65.54
244.86	8.19
245.078	79.87
245.295	-47.1
245.512	57.34
245.729	75.77
245.946	-4.1
246.163	57.34
246.38	14.34
246.597	8.19
246.814	-20.48
247.031	6.14
247.248	55.3
247.464	71.68
247.681	-36.86
247.898	24.58
248.115	77.82
248.332	-26.62
248.549	102.4
248.766	0
248.983	49.15
249.2	-40.96
249.417	59.39
249.633	73.73
249.85	18.43
250.067	4.1
250.284	6.14
250.501	-10.24
250.717	40.96
250.934	45.06
251.151	-55.3
251.368	8.19
251.585	34.82
251.801	53.25
252.018	10.24
252.235	0
252.451	-4.1
252.668	-2.05
252.885	47.1
253.102	122.88
253.318	77.82
253.535	51.2
253.752	-12.29
253.968	-24.58
254.185	-6.14
254.401	18.43
254.618	10.24
254.835	32.77
255.051	86.01
255.268	24.58
255.484	83.97
255.701	36.86
255.917	55.3
256.134	-36.86
256.351	51.2
256.567	-67.58
256.784	16.38
257	-6.14
257.217	75.77
257.433	24.58
257.65	53.25
257.866	45.06
258.082	-4.1
258.299	4.1
258.515	49.15
258.732	-8.19
258.948	45.06
259.165	-92.16
259.381	-28.67
259.597	-73.73
259.814	43.01
260.03	71.68
260.246	28.67
260.463	6.14
260.679	-4.1
260.895	-2.05
261.112	22.53
261.328	43.01
261.544	65.54
261.761	73.73
261.977	-28.67
262.193	-22.53
262.409	86.01
262.626	22.53
262.842	14.34
263.058	18.43
263.274	71.68
263.49	90.11
263.707	51.2
263.923	-14.34
264.139	8.19
264.355	-8.19
264.571	26.62
264.787	34.82
265.004	-16.38
265.22	51.2
265.436	14.34
265.652	83.97
265.868	32.77
266.084	-2.05
266.3	-18.43
266.516	-71.68
266.732	94.21
266.948	38.91
267.164	-4.1
267.38	26.62
267.596	-30.72
267.812	98.3
268.028	36.86
268.244	-34.82
268.46	30.72
268.676	30.72
268.892	38.91
269.108	38.91
269.324	40.96
269.54	86.01
269.756	-24.58
269.972	65.54
270.188	26.62
270.403	47.1
270.619	6.14
270.835	51.2
271.051	-16.38
271.267	10.24
271.483	28.67
271.698	-2.05
271.914	6.14
272.13	-20.48
272.346	14.34
272.562	-49.15
272.777	-24.58
272.993	51.2
273.209	38.91
273.425	96.25
273.64	32.77
273.856	65.54
274.072	40.96
274.287	18.43
274.503	47.1
274.719	12.29
274.934	-22.53
275.15	47.1
275.366	26.62
275.581	65.54
275.797	51.2
276.012	-71.68
276.228	10.24
276.444	34.82
276.659	-32.77
276.875	10.24
277.09	-18.43
277.306	71.68
277.521	-22.53
277.737	16.38
277.952	-8.19
278.168	26.62
278.383	30.72
278.599	-18.43
278.814	51.2
279.03	-6.14
279.245	51.2
279.461	149.5
279.676	38.91
279.892	-51.2
280.107	0
280.322	10.24
280.538	16.38
280.753	2.05
280.969	108.54
281.184	90.11
281.399	14.34
281.615	43.01
281.83	-30.72
282.045	0
282.26	-10.24
282.476	-2.05
282.691	36.86
282.906	22.53
283.122	45.06
283.337	26.62
283.552	-4.1
283.767	-67.58
283.983	22.53
284.198	45.06
284.413	32.77
284.628	-34.82
284.843	14.34
285.058	-45.06
285.274	59.39
285.489	-8.19
285.704	51.2
285.919	-6.14
286.134	92.16
286.349	55.3
286.564	63.49
286.779	8.19
286.995	57.34
287.21	36.86
287.425	10.24
287.64	26.62
287.855	-4.1
288.07	53.25
288.285	51.2
288.5	43.01
288.715	30.72
288.93	-47.1
289.145	36.86
289.36	45.06
289.575	61.44
289.79	-18.43
290.004	22.53
290.219	38.91
290.434	24.58
290.649	12.29
290.864	-47.1
291.079	6.14
291.294	10.24
291.509	73.73
291.724	47.1
291.938	16.38
292.153	-10.24
292.368	32.77
292.583	-10.24
292.798	40.96
293.012	-20.48
293.227	-14.34
293.442	53.25
293.657	34.82
293.871	75.77
294.086	24.58
294.301	96.25
294.516	18.43
294.73	30.72
294.945	-45.06
295.16	-4.1
295.374	98.3
295.589	51.2
295.804	10.24
296.018	-57.34
296.233	-12.29
296.447	51.2
296.662	43.01
296.877	30.72
297.091	26.62
297.306	-12.29
297.52	8.19
297.735	16.38
297.949	61.44
298.164	59.39
298.378	100.35
298.593	24.58
298.807	-4.1
299.022	71.68
299.236	4.1
299.451	43.01
299.665	-32.77
299.88	26.62
300.094	-47.1
300.309	53.25
300.523	36.86
300.737	14.34
300.952	81.92
301.166	32.77
301.381	36.86
301.595	61.44
301.809	-14.34
302.024	34.82
302.238	-20.48
302.452	6.14
302.667	22.53
302.881	108.54
303.095	71.68
303.309	-22.53
303.524	-14.34
303.738	-4.1
303.952	59.39
304.166	2.05
304.381	-8.19
304.595	116.73
304.809	-40.96
305.023	14.34
305.237	49.15
305.452	6.14
305.666	-2.05
305.88	38.91
306.094	34.82
306.308	-16.38
306.522	24.58
306.736	67.58
306.95	-10.24
307.164	59.39
307.379	22.53
307.593	135.17
307.807	26.62
308.021	-36.86
308.235	8.19
308.449	43.01
308.663	16.38
308.877	83.97
309.091	4.1
309.305	24.58
309.519	38.91
309.733	63.49
309.947	8.19
310.161	47.1
310.374	43.01
310.588	116.73
310.802	4.1
311.016	65.54
311.23	63.49
311.444	90.11
311.658	71.68
311.872	24.58
312.085	79.87
312.299	-30.72
312.513	16.38
312.727	75.77
312.941	73.73
313.154	65.54
313.368	116.73
313.582	14.34
313.796	34.82
314.009	77.82
314.223	26.62
314.437	28.67
314.651	0
314.864	20.48
315.078	34.82
315.292	45.06
315.505	71.68
315.719	77.82
315.933	47.1
316.146	73.73
316.36	-26.62
316.573	18.43
316.787	116.73
317.001	18.43
317.214	53.25
317.428	0
317.641	55.3
317.855	30.72
318.068	96.25
318.282	22.53
318.495	110.59
318.709	88.06
318.922	8.19
319.136	20.48
319.349	73.73
319.563	49.15
319.776	55.3
319.99	14.34
320.203	-8.19
320.417	59.39
320.63	-28.67
320.843	81.92
321.057	116.73
321.27	34.82
321.483	49.15
321.697	28.67
321.91	6.14
322.124	49.15
322.337	71.68
322.55	-28.67
322.763	20.48
322.977	38.91
323.19	12.29
323.403	-6.14
323.617	26.62
323.83	32.77
324.043	6.14
324.256	22.53
324.469	83.97
324.683	-8.19
324.896	4.1
325.109	49.15
325.322	20.48
325.535	40.96
325.748	49.15
325.962	69.63
326.175	92.16
326.388	2.05
326.601	12.29
326.814	-10.24
327.027	45.06
327.24	110.59
327.453	28.67
327.666	-10.24
327.879	65.54
328.092	49.15
328.305	24.58
328.518	-83.97
328.731	14.34
328.944	-18.43
329.157	2.05
329.37	-10.24
329.583	86.01
329.796	55.3
330.009	75.77
330.222	24.58
330.435	14.34
330.648	6.14
330.861	43.01
331.073	43.01
331.286	53.25
331.499	20.48
331.712	14.34
331.925	-10.24
332.138	67.58
332.35	57.34
332.563	-40.96
332.776	86.01
332.989	16.38
333.202	94.21
333.414	16.38
333.627	38.91
333.84	40.96
334.053	-10.24
334.265	51.2
334.478	0
334.691	28.67
334.903	45.06
335.116	20.48
335.329	-47.1
335.541	65.54
335.754	67.58
335.966	4.1
336.179	22.53
336.392	47.1
336.604	-4.1
336.817	10.24
337.029	47.1
337.242	26.62
337.454	-20.48
337.667	73.73
337.88	61.44
338.092	-6.14
338.305	-4.1
338.517	-20.48
338.729	126.97
338.942	59.39
339.154	43.01
339.367	4.1
339.579	92.16
339.792	34.82
340.004	131.07
340.217	-16.38
340.429	34.82
340.641	-4.1
340.854	-32.77
341.066	20.48
341.278	18.43
341.491	63.49
341.703	32.77
341.915	-14.34
342.128	141.31
342.34	-2.05
342.552	30.72
342.764	28.67
342.977	51.2
343.189	38.91
343.401	28.67
343.613	20.48
343.826	92.16
344.038	14.34
344.25	143.36
344.462	92.16
344.674	69.63
344.886	10.24
345.099	32.77
345.311	-22.53
345.523	77.82
345.735	24.58
345.947	88.06
346.159	32.77
346.371	8.19
346.583	-36.86
346.795	98.3
347.007	-73.73
347.219	57.34
347.431	-32.77
347.643	118.78
347.855	63.49
348.067	28.67
348.279	104.45
348.491	4.1
348.703	110.59
348.915	45.06
349.127	55.3
349.339	67.58
349.551	20.48
349.763	92.16
349.975	24.58
350.187	69.63
350.399	98.3
350.61	16.38
350.822	14.34
351.034	73.73
351.246	-16.38
351.458	36.86
351.669	47.1
351.881	59.39
352.093	118.78
352.305	94.21
352.517	-24.58
352.728	61.44
352.94	22.53
353.152	24.58
353.363	30.72
353.575	-16.38
353.787	-4.1
353.999	-22.53
354.21	67.58
354.422	53.25
354.633	63.49
354.845	18.43
355.057	14.34
355.268	8.19
355.48	2.05
355.692	83.97
355.903	51.2
356.115	8.19
356.326	28.67
356.538	90.11
356.749	38.91
356.961	83.97
357.172	32.77
357.384	14.34
357.595	28.67
357.807	75.77
358.018	81.92
358.23	14.34
358.441	12.29
358.653	141.31
358.864	32.77
359.075	43.01
359.287	14.34
359.498	32.77
359.709	-34.82
359.921	94.21
360.132	36.86
360.344	6.14
360.555	24.58
360.766	77.82
360.977	116.73
361.189	-24.58
361.4	-22.53
361.611	45.06
361.823	2.05
362.034	45.06
362.245	18.43
362.456	8.19
362.667	94.21
362.879	-2.05
363.09	59.39
363.301	59.39
363.512	24.58
363.723	6.14
363.935	26.62
364.146	30.72
364.357	49.15
364.568	47.1
364.779	6.14
364.99	114.69
365.201	0
365.412	65.54
365.623	-55.3
365.834	73.73
366.045	24.58
366.256	16.38
366.467	-28.67
366.678	6.14
366.889	26.62
367.1	81.92
367.311	61.44
367.522	20.48
367.733	65.54
367.944	63.49
368.155	12.29
368.366	43.01
368.577	90.11
368.788	16.38
368.999	63.49
369.209	53.25
369.42	124.93
369.631	16.38
369.842	12.29
370.053	-10.24
370.264	55.3
370.474	55.3
370.685	108.54
370.896	-8.19
371.107	61.44
371.317	83.97
371.528	92.16
371.739	38.91
371.95	55.3
372.16	77.82
372.371	98.3
372.582	40.96
372.792	18.43
373.003	55.3
373.214	-8.19
373.424	55.3
373.635	51.2
373.846	114.69
374.056	30.72
374.267	32.77
374.477	-51.2
374.688	57.34
374.898	-20.48
375.109	-16.38
375.319	-2.05
375.53	24.58
375.74	36.86
375.951	94.21
376.161	18.43
376.372	36.86
376.582	30.72
376.793	92.16
377.003	16.38
377.214	-20.48
377.424	30.72
377.635	73.73
377.845	18.43
378.055	61.44
378.266	114.69
378.476	14.34
378.686	69.63
378.897	45.06
379.107	22.53
379.317	86.01
379.528	16.38
379.738	83.97
379.948	34.82
380.158	28.67
380.369	8.19
380.579	98.3
380.789	14.34
380.999	20.48
381.21	73.73
381.42	40.96
381.63	28.67
381.84	36.86
382.05	-26.62
382.261	43.01
382.471	57.34
382.681	81.92
382.891	88.06
383.101	-22.53
383.311	49.15
383.521	-6.14
383.731	-40.96
383.941	118.78
384.151	63.49
384.361	69.63
384.571	16.38
384.781	36.86
384.991	86.01
385.201	47.1
385.411	38.91
385.621	83.97
385.831	90.11
386.041	20.48
386.251	20.48
386.461	88.06
386.671	83.97
386.881	14.34
387.091	73.73
387.301	106.49
387.511	118.78
387.72	40.96
387.93	47.1
388.14	38.91
388.35	0
388.56	94.21
388.769	106.49
388.979	77.82
389.189	10.24
389.399	43.01
389.609	2.05
389.818	81.92
390.028	92.16
390.238	112.64
390.447	-2.05
390.657	67.58
390.867	67.58
391.076	12.29
391.286	59.39
391.496	45.06
391.705	47.1
391.915	114.69
392.125	86.01
392.334	59.39
392.544	120.83
392.753	14.34
392.963	61.44
393.172	36.86
393.382	59.39
393.591	100.35
393.801	36.86
394.01	116.73
394.22	40.96
394.429	53.25
394.639	94.21
394.848	86.01
395.058	49.15
395.267	59.39
395.477	40.96
395.686	71.68
395.895	22.53
396.105	157.69
396.314	59.39
396.524	131.07
396.733	-2.05
396.942	88.06
397.152	26.62
397.361	157.69
397.57	133.12
397.78	96.25
397.989	108.54
398.198	53.25
398.407	71.68
398.617	106.49
398.826	38.91
399.035	96.25
399.244	151.55
399.453	83.97
399.663	108.54
399.872	110.59
400.081	102.4
400.29	30.72
400.499	63.49
400.708	137.21
400.917	40.96
401.127	4.1
401.336	122.88
401.545	169.98
401.754	98.3
401.963	112.64
402.172	106.49
402.381	143.36
402.59	59.39
402.799	114.69
403.008	133.12
403.217	151.55
403.426	114.69
403.635	100.35
403.844	157.69
404.053	143.36
404.262	126.97
404.471	180.22
404.68	120.83
404.888	122.88
405.097	145.41
405.306	165.89
405.515	194.56
405.724	155.65
405.933	129.02
406.142	145.41
406.35	145.41
406.559	133.12
406.768	139.26
406.977	118.78
407.185	256
407.394	188.41
407.603	141.31
407.812	221.18
408.02	256
408.229	143.36
408.438	221.18
408.646	190.46
408.855	116.73
409.064	178.17
409.272	223.23
409.481	256
409.69	305.15
409.898	241.66
410.107	309.24
410.315	327.68
410.524	278.52
410.733	276.48
410.941	309.24
411.15	325.63
411.358	313.34
411.567	415.74
411.775	309.24
411.984	339.96
412.192	438.27
412.401	376.83
412.609	421.88
412.818	444.41
413.026	413.69
413.234	448.51
413.443	503.8
413.651	452.6
413.86	421.88
414.068	520.18
414.276	532.47
414.485	542.71
414.693	557.05
414.901	634.87
415.11	569.34
415.318	679.93
415.526	595.96
415.734	694.26
415.943	792.56
416.151	747.51
416.359	825.33
416.567	741.36
416.776	794.61
416.984	886.77
417.192	890.87
417.4	931.83
417.608	903.15
417.817	880.63
418.025	1007.6
418.233	1093.62
418.441	1103.86
418.649	1042.42
418.857	1124.33
419.065	1224.69
419.273	1130.48
419.481	1171.44
419.689	1251.31
419.897	1325.04
420.105	1406.95
420.313	1363.95
420.521	1372.14
420.729	1527.78
420.937	1554.41
421.145	1607.66
421.353	1714.15
421.561	1701.86
421.769	1802.21
421.977	1908.71
422.185	1796.07
422.393	1931.23
422.601	2158.56
422.809	1935.33
423.017	2015.2
423.224	2152.42
423.432	2236.38
423.64	2260.96
423.848	2412.51
424.056	2353.12
424.263	2602.97
424.471	2623.45
424.679	2709.46
424.887	2785.24
425.094	2822.1
425.302	2973.65
425.51	2947.03
425.718	3176.4
425.925	3004.37
426.133	3241.93
426.341	3436.49
426.548	3487.69
426.756	3633.1
426.964	3557.32
427.171	3710.92
427.379	3928
427.586	4061.12
427.794	4161.47
428.001	4331.45
428.209	4495.29
428.417	4476.86
428.624	4669.37
428.832	4837.3
429.039	4753.34
429.247	4569.02
429.454	5210.03
429.662	5670.83
429.869	5201.84
430.076	5533.61
430.284	5414.83
430.491	5691.31
430.699	5982.12
430.906	5978.02
431.114	6031.27
431.321	6287.26
431.528	6416.29
431.736	6678.43
431.943	7040.92
432.15	6784.92
432.358	6866.84
432.565	7229.33
432.772	7198.61
432.979	7673.74
433.187	7667.59
433.394	8030.09
433.601	8284.03
433.808	8624
434.016	8124.29
434.223	8447.87
434.43	9232.24
434.637	8988.53
434.844	9568.11
435.052	9903.98
435.259	9715.56
435.466	9787.24
435.673	9719.66
435.88	10379.11
436.087	10860.38
436.294	10993.5
436.501	10569.57
436.708	10952.54
436.915	11269.97
437.122	11685.71
437.329	11562.83
437.537	12136.26
437.743	12347.2
437.95	12279.62
438.157	12867.39
438.364	13205.3
438.571	13246.26
438.778	13162.3
438.985	14636.83
439.192	14026.54
439.399	14731.04
439.606	14257.96
439.813	15060.76
440.02	16008.97
440.227	15640.34
440.433	15388.44
440.64	16047.88
440.847	15740.69
441.054	16291.59
441.261	17479.41
441.467	17133.31
441.674	17497.85
441.881	18024.17
442.088	18046.7
442.294	17962.73
442.501	18360.04
442.708	18786.02
442.914	19519.19
443.121	20172.49
443.328	19586.77
443.534	21165.76
443.741	20330.19
443.948	20397.77
444.154	22025.9
444.361	21825.2
444.568	22120.11
444.774	22011.57
444.981	22273.71
445.187	22703.78
445.394	23522.97
445.6	23582.36
445.807	25671.29
446.013	24839.81
446.22	25233.02
446.426	26218.1
446.633	26097.27
446.839	27344.48
447.046	26295.92
447.252	27674.2
447.459	27614.81
447.665	27770.46
447.871	28741.19
448.078	29705.79
448.284	28614.22
448.491	29212.23
448.697	30479.92
448.903	31051.3
449.11	30862.89
449.316	30637.61
449.522	31370.79
449.728	32136.73
449.935	32247.32
450.141	32259.6
450.347	32814.6
450.553	31993.37
450.76	32155.16
450.966	33336.84
451.172	33242.63
451.378	33902.07
451.584	33228.29
451.791	34223.61
451.997	34219.51
452.203	34598.38
452.409	34311.67
452.615	34360.82
452.821	33056.26
453.027	32650.77
453.233	34571.76
453.44	32839.18
453.646	33922.55
453.852	33705.47
454.058	34518.51
454.264	32919.05
454.47	33975.8
454.676	32650.77
454.882	34254.33
455.088	31385.12
455.294	31890.97
455.5	32085.53
455.705	32636.43
455.911	31278.63
456.117	30742.06
456.323	30299.7
456.529	28626.51
456.735	29935.16
456.941	29341.25
457.147	28759.63
457.352	27846.23
457.558	27549.28
457.764	27692.63
457.97	27194.98
458.176	26406.51
458.381	26484.33
458.587	25159.3
458.793	25126.53
458.999	23850.64
459.204	25835.13
459.41	24895.11
459.616	23203.49
459.821	23215.77
460.027	23137.95
460.233	23006.88
460.438	21472.95
460.644	21739.19
460.85	20868.8
461.055	20375.24
461.261	20690.63
461.466	18945.76
461.672	18753.25
461.878	19807.95
462.083	18310.89
462.289	18351.85
462.494	17825.52
462.7	16969.47
462.905	16684.8
463.111	17149.69
463.316	17305.34
463.522	16887.55
463.727	17004.28
463.932	16740.1
464.138	16654.08
464.343	16760.58
464.549	16072.46
464.754	16924.41
464.959	16822.02
465.165	16604.93
465.37	15894.29
465.575	15458.07
465.781	16006.92
465.986	16215.82
466.191	15632.15
466.397	15015.71
466.602	14462.76
466.807	15159.06
467.012	14909.21
467.218	15146.78
467.423	14837.53
467.628	14894.88
467.833	15595.28
468.038	14966.56
468.244	14559.01
