Data from USB4F104151__87__12-28-14-308.txt Node

Date: Fri Mar 14 12:28:14 EDT 2025
User: louis
Spectrometer: USB4F10415
Trigger mode: 4
Integration Time (sec): 2.000000E-2
Scans to average: 1
Electric dark correction enabled: true
Nonlinearity correction enabled: false
Boxcar width: 0
XAxis mode: Wavelengths
Number of Pixels in Spectrum: 3648
>>>>>Begin Spectral Data<<<<<
178.204	-86.7
178.424	-86.7
178.644	-86.7
178.864	-139.94
179.084	-115.37
179.304	-68.27
179.524	44.37
179.744	-37.55
179.964	17.75
180.184	9.56
180.404	-0.68
180.624	-43.69
180.844	1.37
181.064	25.94
181.283	32.08
181.503	17.75
181.723	1.37
181.943	-80.55
182.163	27.99
182.383	-17.07
182.602	75.09
182.822	36.18
183.042	19.8
183.262	-17.07
183.482	-31.4
183.701	-43.69
183.921	-10.92
184.141	-17.07
184.361	-55.98
184.58	52.56
184.8	-82.6
185.02	5.46
185.239	38.23
185.459	103.76
185.679	1.37
185.898	-58.03
186.118	21.85
186.338	11.61
186.557	-19.11
186.777	79.19
186.997	30.04
187.216	40.28
187.436	50.52
187.655	-37.55
187.875	75.09
188.095	54.61
188.314	5.46
188.534	-27.31
188.753	7.51
188.973	54.61
189.192	34.13
189.412	17.75
189.631	38.23
189.851	-17.07
190.07	23.89
190.29	-41.64
190.509	-19.11
190.729	32.08
190.948	-0.68
191.168	71
191.387	-6.83
191.607	5.46
191.826	36.18
192.045	-70.31
192.265	19.8
192.484	25.94
192.704	73.04
192.923	-25.26
193.142	30.04
193.362	-0.68
193.581	-55.98
193.8	17.75
194.02	23.89
194.239	-4.78
194.458	56.66
194.678	-33.45
194.897	-60.07
195.116	58.71
195.335	21.85
195.555	13.65
195.774	-25.26
195.993	21.85
196.212	9.56
196.432	56.66
196.651	-41.64
196.87	-23.21
197.089	52.56
197.308	36.18
197.528	9.56
197.747	-35.5
197.966	17.75
198.185	1.37
198.404	56.66
198.623	60.76
198.842	44.37
199.062	25.94
199.281	9.56
199.5	-53.93
199.719	30.04
199.938	7.51
200.157	52.56
200.376	-4.78
200.595	-25.26
200.814	9.56
201.033	-23.21
201.252	66.9
201.471	64.85
201.69	64.85
201.909	19.8
202.128	15.7
202.347	-15.02
202.566	-17.07
202.785	15.7
203.004	-43.69
203.223	79.19
203.442	-41.64
203.661	-15.02
203.879	-43.69
204.098	-35.5
204.317	-66.22
204.536	9.56
204.755	21.85
204.974	87.38
205.193	-8.87
205.411	87.38
205.63	93.52
205.849	7.51
206.068	52.56
206.287	19.8
206.505	-25.26
206.724	-35.5
206.943	-4.78
207.162	36.18
207.381	-25.26
207.599	-37.55
207.818	-12.97
208.037	15.7
208.255	-41.64
208.474	-6.83
208.693	27.99
208.911	34.13
209.13	17.75
209.349	50.52
209.567	-15.02
209.786	15.7
210.005	-55.98
210.223	56.66
210.442	-15.02
210.661	11.61
210.879	-4.78
211.098	11.61
211.316	25.94
211.535	103.76
211.753	-33.45
211.972	1.37
212.191	-12.97
212.409	68.95
212.628	56.66
212.846	-68.27
213.065	11.61
213.283	25.94
213.502	-60.07
213.72	23.89
213.938	-23.21
214.157	62.8
214.375	87.38
214.594	5.46
214.812	9.56
215.031	60.76
215.249	-47.79
215.467	-2.73
215.686	-23.21
215.904	-58.03
216.122	-17.07
216.341	50.52
216.559	-53.93
216.778	38.23
216.996	-6.83
217.214	3.41
217.432	-53.93
217.651	3.41
217.869	32.08
218.087	7.51
218.306	-19.11
218.524	36.18
218.742	5.46
218.96	-31.4
219.179	46.42
219.397	-66.22
219.615	36.18
219.833	7.51
220.051	-25.26
220.27	-29.35
220.488	99.67
220.706	-29.35
220.924	48.47
221.142	38.23
221.36	13.65
221.578	-33.45
221.796	-4.78
222.015	-10.92
222.233	-8.87
222.451	68.95
222.669	11.61
222.887	32.08
223.105	11.61
223.323	-29.35
223.541	-25.26
223.759	-41.64
223.977	-66.22
224.195	-0.68
224.413	99.67
224.631	-19.11
224.849	-41.64
225.067	130.39
225.285	1.37
225.503	21.85
225.721	-4.78
225.939	60.76
226.157	42.32
226.375	75.09
226.592	66.9
226.81	-21.16
227.028	34.13
227.246	3.41
227.464	-27.31
227.682	83.28
227.9	66.9
228.117	-33.45
228.335	-23.21
228.553	-23.21
228.771	114
228.989	15.7
229.206	-12.97
229.424	42.32
229.642	52.56
229.86	27.99
230.077	44.37
230.295	111.96
230.513	-8.87
230.731	25.94
230.948	71
231.166	48.47
231.384	-37.55
231.601	-43.69
231.819	93.52
232.037	-8.87
232.254	-17.07
232.472	-2.73
232.689	-15.02
232.907	36.18
233.125	-17.07
233.342	-37.55
233.56	5.46
233.777	9.56
233.995	-23.21
234.213	46.42
234.43	-6.83
234.648	50.52
234.865	32.08
235.083	-23.21
235.3	75.09
235.518	-10.92
235.735	21.85
235.953	7.51
236.17	32.08
236.388	27.99
236.605	-19.11
236.822	30.04
237.04	5.46
237.257	-0.68
237.475	30.04
237.692	-17.07
237.909	21.85
238.127	-25.26
238.344	30.04
238.562	15.7
238.779	11.61
238.996	-4.78
239.214	-10.92
239.431	36.18
239.648	79.19
239.865	58.71
240.083	-6.83
240.3	1.37
240.517	25.94
240.735	-0.68
240.952	50.52
241.169	27.99
241.386	7.51
241.603	-23.21
241.821	23.89
242.038	9.56
242.255	38.23
242.472	-12.97
242.689	81.24
242.907	15.7
243.124	50.52
243.341	21.85
243.558	-0.68
243.775	1.37
243.992	13.65
244.209	71
244.426	58.71
244.643	62.8
244.86	-27.31
245.078	30.04
245.295	44.37
245.512	118.1
245.729	-19.11
245.946	-15.02
246.163	40.28
246.38	64.85
246.597	46.42
246.814	9.56
247.031	-2.73
247.248	5.46
247.464	15.7
247.681	25.94
247.898	19.8
248.115	27.99
248.332	17.75
248.549	13.65
248.766	58.71
248.983	17.75
249.2	-19.11
249.417	25.94
249.633	64.85
249.85	62.8
250.067	-35.5
250.284	46.42
250.501	-4.78
250.717	30.04
250.934	-4.78
251.151	36.18
251.368	11.61
251.585	58.71
251.801	-23.21
252.018	-2.73
252.235	-15.02
252.451	13.65
252.668	-0.68
252.885	75.09
253.102	-0.68
253.318	46.42
253.535	-41.64
253.752	-8.87
253.968	25.94
254.185	-60.07
254.401	-21.16
254.618	54.61
254.835	50.52
255.051	27.99
255.268	60.76
255.484	36.18
255.701	-29.35
255.917	111.96
256.134	15.7
256.351	11.61
256.567	44.37
256.784	-25.26
257	23.89
257.217	66.9
257.433	64.85
257.65	30.04
257.866	60.76
258.082	42.32
258.299	3.41
258.515	60.76
258.732	30.04
258.948	3.41
259.165	-21.16
259.381	48.47
259.597	87.38
259.814	36.18
260.03	77.14
260.246	111.96
260.463	21.85
260.679	83.28
260.895	23.89
261.112	136.53
261.328	-12.97
261.544	60.76
261.761	68.95
261.977	-37.55
262.193	-19.11
262.409	36.18
262.626	-8.87
262.842	44.37
263.058	7.51
263.274	-41.64
263.49	17.75
263.707	27.99
263.923	21.85
264.139	44.37
264.355	25.94
264.571	27.99
264.787	36.18
265.004	44.37
265.22	-21.16
265.436	-21.16
265.652	-23.21
265.868	54.61
266.084	-21.16
266.3	83.28
266.516	23.89
266.732	-6.83
266.948	46.42
267.164	1.37
267.38	38.23
267.596	79.19
267.812	48.47
268.028	40.28
268.244	-39.59
268.46	13.65
268.676	1.37
268.892	-88.75
269.108	5.46
269.324	-12.97
269.54	1.37
269.756	17.75
269.972	-4.78
270.188	-25.26
270.403	-27.31
270.619	68.95
270.835	56.66
271.051	46.42
271.267	40.28
271.483	-47.79
271.698	50.52
271.914	-17.07
272.13	-21.16
272.346	-15.02
272.562	54.61
272.777	83.28
272.993	23.89
273.209	73.04
273.425	-0.68
273.64	-21.16
273.856	25.94
274.072	-6.83
274.287	-45.74
274.503	5.46
274.719	17.75
274.934	54.61
275.15	1.37
275.366	-4.78
275.581	-47.79
275.797	-17.07
276.012	81.24
276.228	42.32
276.444	34.13
276.659	-6.83
276.875	-8.87
277.09	46.42
277.306	11.61
277.521	34.13
277.737	52.56
277.952	130.39
278.168	-12.97
278.383	89.43
278.599	21.85
278.814	27.99
279.03	34.13
279.245	50.52
279.461	42.32
279.676	5.46
279.892	-27.31
280.107	38.23
280.322	-12.97
280.538	81.24
280.753	15.7
280.969	60.76
281.184	66.9
281.399	17.75
281.615	30.04
281.83	30.04
282.045	27.99
282.26	7.51
282.476	-25.26
282.691	79.19
282.906	9.56
283.122	9.56
283.337	-2.73
283.552	56.66
283.767	60.76
283.983	7.51
284.198	58.71
284.413	-0.68
284.628	15.7
284.843	89.43
285.058	71
285.274	-23.21
285.489	-39.59
285.704	34.13
285.919	-66.22
286.134	21.85
286.349	73.04
286.564	46.42
286.779	93.52
286.995	-2.73
287.21	11.61
287.425	95.57
287.64	81.24
287.855	36.18
288.07	-19.11
288.285	-37.55
288.5	27.99
288.715	60.76
288.93	40.28
289.145	13.65
289.36	40.28
289.575	-12.97
289.79	21.85
290.004	-33.45
290.219	46.42
290.434	44.37
290.649	48.47
290.864	11.61
291.079	52.56
291.294	105.81
291.509	23.89
291.724	-2.73
291.938	-27.31
292.153	21.85
292.368	-25.26
292.583	9.56
292.798	13.65
293.012	-55.98
293.227	148.82
293.442	3.41
293.657	60.76
293.871	54.61
294.086	11.61
294.301	-4.78
294.516	60.76
294.73	34.13
294.945	-8.87
295.16	-72.36
295.374	-17.07
295.589	64.85
295.804	36.18
296.018	17.75
296.233	5.46
296.447	48.47
296.662	-10.92
296.877	107.86
297.091	9.56
297.306	50.52
297.52	-0.68
297.735	-0.68
297.949	-15.02
298.164	-10.92
298.378	40.28
298.593	-10.92
298.807	15.7
299.022	73.04
299.236	-12.97
299.451	64.85
299.665	38.23
299.88	73.04
300.094	13.65
300.309	40.28
300.523	73.04
300.737	11.61
300.952	19.8
301.166	32.08
301.381	7.51
301.595	-29.35
301.809	23.89
302.024	77.14
302.238	-35.5
302.452	17.75
302.667	-4.78
302.881	30.04
303.095	48.47
303.309	3.41
303.524	17.75
303.738	-0.68
303.952	-33.45
304.166	-17.07
304.381	-47.79
304.595	36.18
304.809	7.51
305.023	-4.78
305.237	42.32
305.452	-2.73
305.666	79.19
305.88	66.9
306.094	-12.97
306.308	75.09
306.522	183.63
306.736	-4.78
306.95	68.95
307.164	60.76
307.379	44.37
307.593	68.95
307.807	-27.31
308.021	46.42
308.235	32.08
308.449	15.7
308.663	42.32
308.877	15.7
309.091	-15.02
309.305	27.99
309.519	-133.8
309.733	44.37
309.947	-51.88
310.161	103.76
310.374	66.9
310.588	-39.59
310.802	-8.87
311.016	30.04
311.23	34.13
311.444	13.65
311.658	9.56
311.872	62.8
312.085	38.23
312.299	25.94
312.513	93.52
312.727	5.46
312.941	-62.12
313.154	64.85
313.368	-37.55
313.582	48.47
313.796	15.7
314.009	21.85
314.223	85.33
314.437	120.15
314.651	17.75
314.864	75.09
315.078	40.28
315.292	15.7
315.505	15.7
315.719	15.7
315.933	-8.87
316.146	-6.83
316.36	-47.79
316.573	27.99
316.787	17.75
317.001	-0.68
317.214	13.65
317.428	105.81
317.641	11.61
317.855	58.71
318.068	36.18
318.282	-2.73
318.495	34.13
318.709	44.37
318.922	60.76
319.136	42.32
319.349	64.85
319.563	11.61
319.776	66.9
319.99	25.94
320.203	109.91
320.417	-84.65
320.63	-39.59
320.843	-70.31
321.057	19.8
321.27	58.71
321.483	-21.16
321.697	27.99
321.91	97.62
322.124	38.23
322.337	13.65
322.55	36.18
322.763	58.71
322.977	32.08
323.19	-35.5
323.403	11.61
323.617	-17.07
323.83	60.76
324.043	30.04
324.256	-8.87
324.469	25.94
324.683	66.9
324.896	-4.78
325.109	42.32
325.322	83.28
325.535	46.42
325.748	36.18
325.962	30.04
326.175	-35.5
326.388	21.85
326.601	-58.03
326.814	52.56
327.027	19.8
327.24	101.72
327.453	44.37
327.666	11.61
327.879	56.66
328.092	21.85
328.305	27.99
328.518	54.61
328.731	-2.73
328.944	46.42
329.157	44.37
329.37	-29.35
329.583	19.8
329.796	50.52
330.009	1.37
330.222	-15.02
330.435	68.95
330.648	52.56
330.861	42.32
331.073	23.89
331.286	5.46
331.499	3.41
331.712	68.95
331.925	1.37
332.138	38.23
332.35	79.19
332.563	66.9
332.776	97.62
332.989	-39.59
333.202	1.37
333.414	40.28
333.627	71
333.84	3.41
334.053	23.89
334.265	15.7
334.478	5.46
334.691	58.71
334.903	-43.69
335.116	-8.87
335.329	83.28
335.541	50.52
335.754	50.52
335.966	-19.11
336.179	68.95
336.392	30.04
336.604	13.65
336.817	46.42
337.029	44.37
337.242	99.67
337.454	58.71
337.667	66.9
337.88	91.48
338.092	27.99
338.305	75.09
338.517	-6.83
338.729	83.28
338.942	91.48
339.154	-37.55
339.367	13.65
339.579	-15.02
339.792	-23.21
340.004	105.81
340.217	54.61
340.429	54.61
340.641	25.94
340.854	-33.45
341.066	-29.35
341.278	71
341.491	77.14
341.703	-0.68
341.915	15.7
342.128	97.62
342.34	46.42
342.552	-23.21
342.764	42.32
342.977	-27.31
343.189	-4.78
343.401	23.89
343.613	-4.78
343.826	93.52
344.038	34.13
344.25	19.8
344.462	19.8
344.674	66.9
344.886	19.8
345.099	17.75
345.311	-37.55
345.523	36.18
345.735	-49.83
345.947	38.23
346.159	52.56
346.371	32.08
346.583	89.43
346.795	64.85
347.007	64.85
347.219	71
347.431	60.76
347.643	19.8
347.855	-21.16
348.067	56.66
348.279	-2.73
348.491	23.89
348.703	48.47
348.915	-49.83
349.127	116.05
349.339	3.41
349.551	-37.55
349.763	44.37
349.975	66.9
350.187	56.66
350.399	116.05
350.61	77.14
350.822	48.47
351.034	7.51
351.246	-0.68
351.458	1.37
351.669	109.91
351.881	9.56
352.093	-4.78
352.305	81.24
352.517	25.94
352.728	60.76
352.94	34.13
353.152	91.48
353.363	109.91
353.575	71
353.787	64.85
353.999	3.41
354.21	91.48
354.422	75.09
354.633	25.94
354.845	36.18
355.057	-12.97
355.268	91.48
355.48	73.04
355.692	-21.16
355.903	79.19
356.115	-51.88
356.326	52.56
356.538	64.85
356.749	23.89
356.961	75.09
357.172	71
357.384	50.52
357.595	9.56
357.807	48.47
358.018	23.89
358.23	77.14
358.441	17.75
358.653	71
358.864	77.14
359.075	38.23
359.287	-80.55
359.498	62.8
359.709	52.56
359.921	40.28
360.132	42.32
360.344	36.18
360.555	27.99
360.766	62.8
360.977	27.99
361.189	56.66
361.4	68.95
361.611	54.61
361.823	19.8
362.034	77.14
362.245	-62.12
362.456	-8.87
362.667	32.08
362.879	52.56
363.09	27.99
363.301	58.71
363.512	52.56
363.723	-6.83
363.935	-35.5
364.146	36.18
364.357	62.8
364.568	68.95
364.779	-39.59
364.99	107.86
365.201	3.41
365.412	38.23
365.623	-4.78
365.834	48.47
366.045	21.85
366.256	50.52
366.467	64.85
366.678	-37.55
366.889	-17.07
367.1	52.56
367.311	23.89
367.522	38.23
367.733	13.65
367.944	-17.07
368.155	36.18
368.366	99.67
368.577	-0.68
368.788	50.52
368.999	46.42
369.209	46.42
369.42	32.08
369.631	91.48
369.842	19.8
370.053	36.18
370.264	38.23
370.474	3.41
370.685	60.76
370.896	36.18
371.107	13.65
371.317	111.96
371.528	9.56
371.739	97.62
371.95	85.33
372.16	68.95
372.371	-23.21
372.582	48.47
372.792	19.8
373.003	1.37
373.214	-4.78
373.424	81.24
373.635	34.13
373.846	97.62
374.056	15.7
374.267	48.47
374.477	-17.07
374.688	15.7
374.898	46.42
375.109	52.56
375.319	21.85
375.53	40.28
375.74	23.89
375.951	77.14
376.161	-27.31
376.372	75.09
376.582	36.18
376.793	101.72
377.003	32.08
377.214	11.61
377.424	73.04
377.635	23.89
377.845	42.32
378.055	85.33
378.266	5.46
378.476	46.42
378.686	79.19
378.897	11.61
379.107	71
379.317	56.66
379.528	30.04
379.738	132.44
379.948	36.18
380.158	46.42
380.369	56.66
380.579	32.08
380.789	85.33
380.999	93.52
381.21	40.28
381.42	1.37
381.63	52.56
381.84	25.94
382.05	50.52
382.261	17.75
382.471	15.7
382.681	27.99
382.891	81.24
383.101	42.32
383.311	21.85
383.521	66.9
383.731	-0.68
383.941	34.13
384.151	99.67
384.361	48.47
384.571	52.56
384.781	83.28
384.991	116.05
385.201	68.95
385.411	91.48
385.621	38.23
385.831	105.81
386.041	126.29
386.251	56.66
386.461	138.58
386.671	50.52
386.881	-39.59
387.091	32.08
387.301	120.15
387.511	83.28
387.72	66.9
387.93	89.43
388.14	163.15
388.35	75.09
388.56	34.13
388.769	120.15
388.979	91.48
389.189	1.37
389.399	21.85
389.609	107.86
389.818	79.19
390.028	21.85
390.238	62.8
390.447	68.95
390.657	91.48
390.867	109.91
391.076	-17.07
391.286	116.05
391.496	107.86
391.705	83.28
391.915	77.14
392.125	83.28
392.334	75.09
392.544	89.43
392.753	75.09
392.963	93.52
393.172	101.72
393.382	38.23
393.591	118.1
393.801	81.24
394.01	128.34
394.22	120.15
394.429	89.43
394.639	120.15
394.848	120.15
395.058	85.33
395.267	93.52
395.477	56.66
395.686	126.29
395.895	116.05
396.105	126.29
396.314	83.28
396.524	68.95
396.733	48.47
396.942	95.57
397.152	93.52
397.361	91.48
397.57	56.66
397.78	95.57
397.989	124.24
398.198	200.02
398.407	138.58
398.617	42.32
398.826	109.91
399.035	103.76
399.244	75.09
399.453	114
399.663	138.58
399.872	95.57
400.081	89.43
400.29	136.53
400.499	27.99
400.708	107.86
400.917	138.58
401.127	93.52
401.336	195.92
401.545	89.43
401.754	99.67
401.963	89.43
402.172	138.58
402.381	142.68
402.59	85.33
402.799	238.93
403.008	191.83
403.217	214.35
403.426	152.92
403.635	128.34
403.844	152.92
404.053	171.35
404.262	144.72
404.471	263.51
404.68	136.53
404.888	185.68
405.097	183.63
405.306	132.44
405.515	165.2
405.724	181.59
405.933	275.79
406.142	226.64
406.35	224.59
406.559	222.55
406.768	189.78
406.977	251.22
407.185	236.88
407.394	265.55
407.603	212.31
407.812	228.69
408.02	288.08
408.229	281.94
408.438	228.69
408.646	281.94
408.855	320.85
409.064	343.38
409.272	392.53
409.481	421.2
409.69	353.62
409.898	329.04
410.107	345.42
410.315	404.82
410.524	353.62
410.733	402.77
410.941	386.38
411.15	511.31
411.358	451.92
411.567	513.36
411.775	458.06
411.984	496.97
412.192	544.08
412.401	587.08
412.609	607.56
412.818	671.05
413.026	623.95
413.234	714.06
413.443	669
413.651	740.68
413.86	718.15
414.068	697.67
414.276	775.5
414.485	861.51
414.693	806.22
414.901	918.86
415.11	965.96
415.318	902.47
415.526	922.95
415.734	986.44
415.943	1008.97
416.151	1029.45
416.359	1125.7
416.567	1131.84
416.776	1271.11
416.984	1301.83
417.192	1291.59
417.4	1275.2
417.608	1236.29
417.817	1283.39
418.025	1348.93
418.233	1502.53
418.441	1463.62
418.649	1559.87
418.857	1619.26
419.065	1721.66
419.273	1662.27
419.481	1783.1
419.689	1877.3
419.897	1938.74
420.105	1938.74
420.313	2030.9
420.521	2200.88
420.729	2094.39
420.937	2331.95
421.145	2377.01
421.353	2497.84
421.561	2553.13
421.769	2614.57
421.977	2764.08
422.185	2608.43
422.393	2874.67
422.601	3056.93
422.809	3020.07
423.017	3063.08
423.224	3212.58
423.432	3325.22
423.64	3294.5
423.848	3579.17
424.056	3587.36
424.263	3736.86
424.471	3826.97
424.679	3849.5
424.887	4064.54
425.094	4287.76
425.302	4238.61
425.51	4367.63
425.718	4558.1
425.925	4521.23
426.133	4644.11
426.341	5004.55
426.548	5078.28
426.756	5260.55
426.964	5338.37
427.171	5543.17
427.379	5676.29
427.586	5752.06
427.794	6008.06
428.001	6268.15
428.209	6507.76
428.417	6522.1
428.624	6829.29
428.832	6933.74
429.039	6825.2
429.247	6694.13
429.454	7605.47
429.662	8045.79
429.869	7693.54
430.076	8049.88
430.284	7920.86
430.491	8066.27
430.699	8668.37
430.906	8656.08
431.114	8649.94
431.321	9106.63
431.528	9280.71
431.736	9888.96
431.943	10497.21
432.15	10099.9
432.358	9940.16
432.565	10726.58
432.772	10622.13
432.979	11156.65
433.187	11365.54
433.394	11400.36
433.601	12221.59
433.808	12184.73
434.016	12258.46
434.223	12614.8
434.43	13796.48
434.637	13180.04
434.844	13988.99
435.052	14378.11
435.259	14210.17
435.466	14288
435.673	14220.41
435.88	15107.18
436.087	16065.63
436.294	16002.15
436.501	15854.69
436.708	15924.32
436.915	16471.13
437.122	17187.92
437.329	17134.67
437.537	17650.76
437.743	17855.56
437.95	17769.54
438.157	18803.77
438.364	19182.64
438.571	19592.23
438.778	19467.31
438.985	21505.04
439.192	20425.76
439.399	21290
439.606	21036.05
439.813	22105.09
440.02	23211
440.227	22934.52
440.433	22397.95
440.64	23038.97
440.847	23280.63
441.054	23755.75
441.261	25359.31
441.467	25074.65
441.674	25793.48
441.881	26897.34
442.088	26262.47
442.294	26233.8
442.501	26971.07
442.708	27466.67
442.914	28750.75
443.121	29713.3
443.328	28916.64
443.534	30966.65
443.741	29981.58
443.948	29860.75
444.154	31943.53
444.361	31757.17
444.568	32146.28
444.774	31976.3
444.981	32330.6
445.187	33342.3
445.394	34853.7
445.6	34130.76
445.807	37563.16
446.013	36154.16
446.22	36664.1
446.426	37491.48
446.633	38064.91
446.839	39742.2
447.046	37792.53
447.252	39879.41
447.459	40133.36
447.665	39834.36
447.871	41861.85
448.078	43631.29
448.284	41577.18
448.491	42422.99
448.697	44278.45
448.903	44894.89
449.11	45228.71
449.316	44219.06
449.522	45361.83
449.728	45963.93
449.935	46750.35
450.141	46713.48
450.347	47684.22
450.553	46475.92
450.76	46815.88
450.966	48427.63
451.172	47856.25
451.378	49355.36
451.584	48263.8
451.791	49406.56
451.997	49007.21
452.203	49951.32
452.409	50201.18
452.615	49570.4
452.821	47725.18
453.027	47751.8
453.233	50152.02
453.44	48310.9
453.646	48484.98
453.852	48966.25
454.058	49781.34
454.264	48167.54
454.47	49093.22
454.676	48001.66
454.882	49709.66
455.088	45509.28
455.294	45914.78
455.5	46738.06
455.705	47368.83
455.911	45841.05
456.117	44892.84
456.323	44032.69
456.529	41804.5
456.735	43743.93
456.941	42384.08
457.147	41528.03
457.352	40600.3
457.558	39977.72
457.764	40149.74
457.97	39508.73
458.176	38867.72
458.381	38613.77
458.587	36975.39
458.793	36875.04
458.999	34995.01
459.204	37358.36
459.41	36211.5
459.616	34079.57
459.821	33823.57
460.027	33663.83
460.233	33420.12
460.438	31490.93
460.644	32007.02
460.85	30755.71
461.055	29950.86
461.261	29793.17
461.466	27395
461.672	26928.06
461.878	29141.91
462.083	27093.94
462.289	26069.96
462.494	25760.72
462.7	25054.17
462.905	24376.29
463.111	24996.82
463.316	25625.55
463.522	24982.49
463.727	24810.46
463.932	24611.81
464.138	24566.75
464.343	24454.11
464.549	23778.28
464.754	24570.85
464.959	24554.46
465.165	24185.83
465.37	22995.96
465.575	22428.67
465.781	23507.95
465.986	23643.12
466.191	22711.29
466.397	22387.71
466.602	21077.01
466.807	21998.6
467.012	22354.94
467.218	22170.63
