Data from USB4F104151__68__12-27-45-011.txt Node

Date: Fri Mar 14 12:27:45 EDT 2025
User: louis
Spectrometer: USB4F10415
Trigger mode: 4
Integration Time (sec): 2.000000E-2
Scans to average: 1
Electric dark correction enabled: true
Nonlinearity correction enabled: false
Boxcar width: 0
XAxis mode: Wavelengths
Number of Pixels in Spectrum: 3648
>>>>>Begin Spectral Data<<<<<
178.204	-64.51
178.424	-64.51
178.644	-64.51
178.864	-109.57
179.084	-119.81
179.304	-35.84
179.524	-39.94
179.744	13.31
179.964	70.65
180.184	-21.5
180.404	35.84
180.624	-37.89
180.844	-23.55
181.064	-58.37
181.283	72.7
181.503	-29.7
181.723	54.27
181.943	-39.94
182.163	-9.22
182.383	-44.03
182.602	84.99
182.822	29.7
183.042	29.7
183.262	-29.7
183.482	15.36
183.701	25.6
183.921	-15.36
184.141	41.98
184.361	-17.41
184.58	-15.36
184.8	44.03
185.02	-41.98
185.239	56.32
185.459	29.7
185.679	23.55
185.898	13.31
186.118	17.41
186.338	9.22
186.557	99.33
186.777	23.55
186.997	48.13
187.216	56.32
187.436	29.7
187.655	31.74
187.875	-23.55
188.095	48.13
188.314	107.52
188.534	29.7
188.753	-1.02
188.973	72.7
189.192	105.47
189.412	-3.07
189.631	21.5
189.851	97.28
190.07	35.84
190.29	-46.08
190.509	48.13
190.729	11.26
190.948	119.81
191.168	84.99
191.387	62.46
191.607	78.85
191.826	66.56
192.045	70.65
192.265	29.7
192.484	15.36
192.704	15.36
192.923	9.22
193.142	70.65
193.362	105.47
193.581	-1.02
193.8	107.52
194.02	25.6
194.239	23.55
194.458	11.26
194.678	27.65
194.897	56.32
195.116	-27.65
195.335	-29.7
195.555	52.22
195.774	-15.36
195.993	41.98
196.212	60.42
196.432	29.7
196.651	5.12
196.87	-13.31
197.089	37.89
197.308	48.13
197.528	68.61
197.747	1.02
197.966	3.07
198.185	50.18
198.404	25.6
198.623	25.6
198.842	1.02
199.062	50.18
199.281	17.41
199.5	52.22
199.719	-17.41
199.938	39.94
200.157	54.27
200.376	84.99
200.595	84.99
200.814	44.03
201.033	39.94
201.252	11.26
201.471	39.94
201.69	48.13
201.909	29.7
202.128	91.13
202.347	15.36
202.566	15.36
202.785	68.61
203.004	-31.74
203.223	60.42
203.442	35.84
203.661	-19.46
203.879	37.89
204.098	54.27
204.317	-19.46
204.536	39.94
204.755	-46.08
204.974	15.36
205.193	80.89
205.411	-33.79
205.63	-17.41
205.849	23.55
206.068	-5.12
206.287	68.61
206.505	-31.74
206.724	70.65
206.943	-19.46
207.162	56.32
207.381	33.79
207.599	-3.07
207.818	-17.41
208.037	74.75
208.255	89.09
208.474	64.51
208.693	66.56
208.911	74.75
209.13	15.36
209.349	-11.26
209.567	-33.79
209.786	31.74
210.005	13.31
210.223	-1.02
210.442	105.47
210.661	58.37
210.879	9.22
211.098	23.55
211.316	23.55
211.535	76.8
211.753	33.79
211.972	21.5
212.191	7.17
212.409	15.36
212.628	-25.6
212.846	119.81
213.065	103.42
213.283	78.85
213.502	-9.22
213.72	31.74
213.938	-3.07
214.157	46.08
214.375	25.6
214.594	119.81
214.812	54.27
215.031	3.07
215.249	21.5
215.467	58.37
215.686	3.07
215.904	21.5
216.122	-29.7
216.341	17.41
216.559	-25.6
216.778	46.08
216.996	66.56
217.214	17.41
217.432	39.94
217.651	17.41
217.869	-56.32
218.087	-3.07
218.306	-48.13
218.524	13.31
218.742	33.79
218.96	66.56
219.179	74.75
219.397	58.37
219.615	87.04
219.833	35.84
220.051	7.17
220.27	29.7
220.488	54.27
220.706	80.89
220.924	7.17
221.142	19.46
221.36	27.65
221.578	46.08
221.796	52.22
222.015	-64.51
222.233	46.08
222.451	-11.26
222.669	17.41
222.887	-21.5
223.105	39.94
223.323	74.75
223.541	13.31
223.759	9.22
223.977	-29.7
224.195	74.75
224.413	60.42
224.631	64.51
224.849	13.31
225.067	64.51
225.285	15.36
225.503	-5.12
225.721	5.12
225.939	39.94
226.157	35.84
226.375	70.65
226.592	-23.55
226.81	54.27
227.028	44.03
227.246	93.18
227.464	23.55
227.682	70.65
227.9	-60.42
228.117	35.84
228.335	-5.12
228.553	48.13
228.771	-39.94
228.989	80.89
229.206	27.65
229.424	9.22
229.642	-70.65
229.86	-39.94
230.077	11.26
230.295	-33.79
230.513	25.6
230.731	80.89
230.948	60.42
231.166	93.18
231.384	29.7
231.601	48.13
231.819	-13.31
232.037	27.65
232.254	-58.37
232.472	17.41
232.689	-19.46
232.907	54.27
233.125	31.74
233.342	23.55
233.56	37.89
233.777	60.42
233.995	23.55
234.213	25.6
234.43	23.55
234.648	46.08
234.865	37.89
235.083	15.36
235.3	50.18
235.518	46.08
235.735	89.09
235.953	48.13
236.17	21.5
236.388	-5.12
236.605	35.84
236.822	35.84
237.04	-5.12
237.257	9.22
237.475	-9.22
237.692	60.42
237.909	-15.36
238.127	31.74
238.344	70.65
238.562	25.6
238.779	58.37
238.996	62.46
239.214	21.5
239.431	91.13
239.648	13.31
239.865	70.65
240.083	74.75
240.3	58.37
240.517	58.37
240.735	-48.13
240.952	52.22
241.169	-25.6
241.386	44.03
241.603	17.41
241.821	35.84
242.038	62.46
242.255	15.36
242.472	27.65
242.689	5.12
242.907	27.65
243.124	68.61
243.341	-1.02
243.558	-19.46
243.775	-17.41
243.992	93.18
244.209	31.74
244.426	7.17
244.643	23.55
244.86	48.13
245.078	-11.26
245.295	70.65
245.512	37.89
245.729	15.36
245.946	48.13
246.163	54.27
246.38	105.47
246.597	64.51
246.814	31.74
247.031	-15.36
247.248	11.26
247.464	-17.41
247.681	54.27
247.898	-9.22
248.115	19.46
248.332	54.27
248.549	84.99
248.766	64.51
248.983	-1.02
249.2	58.37
249.417	97.28
249.633	-7.17
249.85	-31.74
250.067	-35.84
250.284	3.07
250.501	-58.37
250.717	23.55
250.934	-37.89
251.151	68.61
251.368	21.5
251.585	82.94
251.801	3.07
252.018	9.22
252.235	41.98
252.451	113.66
252.668	58.37
252.885	80.89
253.102	-9.22
253.318	11.26
253.535	9.22
253.752	11.26
253.968	-21.5
254.185	-17.41
254.401	17.41
254.618	29.7
254.835	31.74
255.051	25.6
255.268	-11.26
255.484	70.65
255.701	48.13
255.917	99.33
256.134	-31.74
256.351	11.26
256.567	17.41
256.784	44.03
257	39.94
257.217	101.37
257.433	62.46
257.65	60.42
257.866	68.61
258.082	21.5
258.299	9.22
258.515	121.85
258.732	60.42
258.948	-23.55
259.165	-1.02
259.381	27.65
259.597	-5.12
259.814	29.7
260.03	27.65
260.246	-3.07
260.463	91.13
260.679	111.61
260.895	31.74
261.112	35.84
261.328	-72.7
261.544	29.7
261.761	84.99
261.977	17.41
262.193	-50.18
262.409	7.17
262.626	48.13
262.842	35.84
263.058	-35.84
263.274	3.07
263.49	31.74
263.707	111.61
263.923	37.89
264.139	74.75
264.355	-9.22
264.571	72.7
264.787	48.13
265.004	25.6
265.22	111.61
265.436	9.22
265.652	33.79
265.868	-1.02
266.084	-66.56
266.3	37.89
266.516	3.07
266.732	-33.79
266.948	-5.12
267.164	11.26
267.38	-5.12
267.596	21.5
267.812	-15.36
268.028	56.32
268.244	-13.31
268.46	11.26
268.676	31.74
268.892	7.17
269.108	-1.02
269.324	-11.26
269.54	-15.36
269.756	72.7
269.972	15.36
270.188	35.84
270.403	78.85
270.619	123.9
270.835	-23.55
271.051	21.5
271.267	62.46
271.483	23.55
271.698	-29.7
271.914	91.13
272.13	21.5
272.346	-52.22
272.562	-31.74
272.777	17.41
272.993	19.46
273.209	-5.12
273.425	21.5
273.64	89.09
273.856	1.02
274.072	35.84
274.287	72.7
274.503	19.46
274.719	23.55
274.934	33.79
275.15	-7.17
275.366	-15.36
275.581	68.61
275.797	140.29
276.012	21.5
276.228	80.89
276.444	-33.79
276.659	-7.17
276.875	50.18
277.09	-7.17
277.306	-9.22
277.521	-1.02
277.737	27.65
277.952	56.32
278.168	-9.22
278.383	21.5
278.599	-13.31
278.814	76.8
279.03	48.13
279.245	19.46
279.461	95.23
279.676	80.89
279.892	19.46
280.107	-37.89
280.322	-3.07
280.538	46.08
280.753	-1.02
280.969	-37.89
281.184	80.89
281.399	7.17
281.615	74.75
281.83	27.65
282.045	35.84
282.26	64.51
282.476	-29.7
282.691	-13.31
282.906	-11.26
283.122	-15.36
283.337	60.42
283.552	44.03
283.767	11.26
283.983	97.28
284.198	68.61
284.413	-11.26
284.628	-29.7
284.843	27.65
285.058	29.7
285.274	25.6
285.489	29.7
285.704	-13.31
285.919	33.79
286.134	23.55
286.349	97.28
286.564	21.5
286.779	103.42
286.995	-66.56
287.21	70.65
287.425	9.22
287.64	-1.02
287.855	80.89
288.07	60.42
288.285	72.7
288.5	29.7
288.715	31.74
288.93	11.26
289.145	74.75
289.36	97.28
289.575	3.07
289.79	52.22
290.004	19.46
290.219	68.61
290.434	56.32
290.649	-15.36
290.864	82.94
291.079	-5.12
291.294	9.22
291.509	11.26
291.724	48.13
291.938	39.94
292.153	13.31
292.368	11.26
292.583	-7.17
292.798	70.65
293.012	64.51
293.227	56.32
293.442	-62.46
293.657	19.46
293.871	58.37
294.086	89.09
294.301	39.94
294.516	78.85
294.73	46.08
294.945	9.22
295.16	-19.46
295.374	11.26
295.589	-1.02
295.804	56.32
296.018	-74.75
296.233	46.08
296.447	3.07
296.662	33.79
296.877	23.55
297.091	35.84
297.306	37.89
297.52	97.28
297.735	87.04
297.949	52.22
298.164	37.89
298.378	58.37
298.593	-7.17
298.807	70.65
299.022	54.27
299.236	111.61
299.451	31.74
299.665	-27.65
299.88	91.13
300.094	68.61
300.309	29.7
300.523	-27.65
300.737	7.17
300.952	78.85
301.166	-21.5
301.381	87.04
301.595	-9.22
301.809	-3.07
302.024	13.31
302.238	29.7
302.452	60.42
302.667	17.41
302.881	87.04
303.095	54.27
303.309	23.55
303.524	93.18
303.738	-7.17
303.952	101.37
304.166	7.17
304.381	15.36
304.595	62.46
304.809	25.6
305.023	-33.79
305.237	13.31
305.452	54.27
305.666	35.84
305.88	5.12
306.094	78.85
306.308	97.28
306.522	48.13
306.736	62.46
306.95	123.9
307.164	-3.07
307.379	39.94
307.593	78.85
307.807	103.42
308.021	11.26
308.235	54.27
308.449	25.6
308.663	52.22
308.877	41.98
309.091	60.42
309.305	62.46
309.519	33.79
309.733	27.65
309.947	82.94
310.161	31.74
310.374	-25.6
310.588	11.26
310.802	58.37
311.016	29.7
311.23	7.17
311.444	1.02
311.658	82.94
311.872	89.09
312.085	64.51
312.299	84.99
312.513	46.08
312.727	138.24
312.941	56.32
313.154	62.46
313.368	56.32
313.582	31.74
313.796	72.7
314.009	39.94
314.223	-3.07
314.437	56.32
314.651	91.13
314.864	44.03
315.078	50.18
315.292	25.6
315.505	58.37
315.719	91.13
315.933	99.33
316.146	39.94
316.36	31.74
316.573	23.55
316.787	46.08
317.001	21.5
317.214	64.51
317.428	35.84
317.641	54.27
317.855	-33.79
318.068	41.98
318.282	19.46
318.495	93.18
318.709	136.19
318.922	19.46
319.136	103.42
319.349	93.18
319.563	60.42
319.776	99.33
319.99	3.07
320.203	78.85
320.417	7.17
320.63	-17.41
320.843	60.42
321.057	37.89
321.27	9.22
321.483	31.74
321.697	31.74
321.91	23.55
322.124	70.65
322.337	-1.02
322.55	80.89
322.763	44.03
322.977	15.36
323.19	-19.46
323.403	-19.46
323.617	1.02
323.83	105.47
324.043	-1.02
324.256	5.12
324.469	17.41
324.683	27.65
324.896	62.46
325.109	64.51
325.322	-23.55
325.535	25.6
325.748	66.56
325.962	21.5
326.175	17.41
326.388	119.81
326.601	84.99
326.814	23.55
327.027	58.37
327.24	99.33
327.453	31.74
327.666	44.03
327.879	-37.89
328.092	29.7
328.305	58.37
328.518	31.74
328.731	101.37
328.944	123.9
329.157	11.26
329.37	37.89
329.583	60.42
329.796	95.23
330.009	56.32
330.222	84.99
330.435	80.89
330.648	115.71
330.861	72.7
331.073	33.79
331.286	41.98
331.499	66.56
331.712	60.42
331.925	-5.12
332.138	21.5
332.35	-25.6
332.563	-39.94
332.776	54.27
332.989	23.55
333.202	9.22
333.414	-29.7
333.627	76.8
333.84	80.89
334.053	70.65
334.265	-9.22
334.478	50.18
334.691	91.13
334.903	52.22
335.116	68.61
335.329	50.18
335.541	21.5
335.754	109.57
335.966	5.12
336.179	23.55
336.392	21.5
336.604	58.37
336.817	-1.02
337.029	27.65
337.242	25.6
337.454	35.84
337.667	-23.55
337.88	72.7
338.092	48.13
338.305	-25.6
338.517	48.13
338.729	70.65
338.942	52.22
339.154	46.08
339.367	21.5
339.579	107.52
339.792	82.94
340.004	70.65
340.217	3.07
340.429	70.65
340.641	72.7
340.854	52.22
341.066	80.89
341.278	48.13
341.491	35.84
341.703	95.23
341.915	11.26
342.128	74.75
342.34	-13.31
342.552	84.99
342.764	78.85
342.977	21.5
343.189	35.84
343.401	60.42
343.613	64.51
343.826	78.85
344.038	29.7
344.25	68.61
344.462	1.02
344.674	-33.79
344.886	35.84
345.099	89.09
345.311	23.55
345.523	23.55
345.735	17.41
345.947	97.28
346.159	103.42
346.371	52.22
346.583	58.37
346.795	64.51
347.007	44.03
347.219	52.22
347.431	62.46
347.643	41.98
347.855	23.55
348.067	68.61
348.279	87.04
348.491	33.79
348.703	50.18
348.915	132.09
349.127	91.13
349.339	-15.36
349.551	1.02
349.763	50.18
349.975	50.18
350.187	1.02
350.399	46.08
350.61	19.46
350.822	9.22
351.034	72.7
351.246	113.66
351.458	91.13
351.669	66.56
351.881	37.89
352.093	82.94
352.305	37.89
352.517	9.22
352.728	142.33
352.94	60.42
353.152	44.03
353.363	46.08
353.575	21.5
353.787	154.62
353.999	78.85
354.21	87.04
354.422	103.42
354.633	9.22
354.845	60.42
355.057	19.46
355.268	19.46
355.48	54.27
355.692	64.51
355.903	78.85
356.115	-13.31
356.326	35.84
356.538	58.37
356.749	52.22
356.961	19.46
357.172	-5.12
357.384	35.84
357.595	134.14
357.807	44.03
358.018	7.17
358.23	56.32
358.441	76.8
358.653	64.51
358.864	-33.79
359.075	29.7
359.287	50.18
359.498	74.75
359.709	113.66
359.921	31.74
360.132	70.65
360.344	11.26
360.555	-9.22
360.766	93.18
360.977	115.71
361.189	95.23
361.4	89.09
361.611	97.28
361.823	68.61
362.034	130.05
362.245	-27.65
362.456	50.18
362.667	103.42
362.879	33.79
363.09	39.94
363.301	23.55
363.512	13.31
363.723	17.41
363.935	50.18
364.146	44.03
364.357	11.26
364.568	31.74
364.779	35.84
364.99	31.74
365.201	7.17
365.412	50.18
365.623	1.02
365.834	89.09
366.045	95.23
366.256	72.7
366.467	91.13
366.678	7.17
366.889	1.02
367.1	37.89
367.311	103.42
367.522	35.84
367.733	35.84
367.944	97.28
368.155	56.32
368.366	33.79
368.577	130.05
368.788	3.07
368.999	46.08
369.209	15.36
369.42	70.65
369.631	103.42
369.842	-64.51
370.053	1.02
370.264	60.42
370.474	44.03
370.685	-9.22
370.896	19.46
371.107	117.76
371.317	17.41
371.528	46.08
371.739	54.27
371.95	15.36
372.16	1.02
372.371	25.6
372.582	-15.36
372.792	5.12
373.003	46.08
373.214	-3.07
373.424	56.32
373.635	68.61
373.846	68.61
374.056	58.37
374.267	148.48
374.477	52.22
374.688	9.22
374.898	27.65
375.109	68.61
375.319	27.65
375.53	119.81
375.74	23.55
375.951	76.8
376.161	35.84
376.372	23.55
376.582	54.27
376.793	23.55
377.003	87.04
377.214	21.5
377.424	-21.5
377.635	87.04
377.845	54.27
378.055	68.61
378.266	50.18
378.476	31.74
378.686	48.13
378.897	136.19
379.107	46.08
379.317	80.89
379.528	60.42
379.738	70.65
379.948	11.26
380.158	93.18
380.369	107.52
380.579	27.65
380.789	109.57
380.999	105.47
381.21	158.72
381.42	134.14
381.63	78.85
381.84	144.38
382.05	105.47
382.261	52.22
382.471	54.27
382.681	60.42
382.891	91.13
383.101	-9.22
383.311	15.36
383.521	115.71
383.731	33.79
383.941	105.47
384.151	52.22
384.361	125.95
384.571	33.79
384.781	91.13
384.991	168.96
385.201	134.14
385.411	54.27
385.621	78.85
385.831	13.31
386.041	9.22
386.251	48.13
386.461	84.99
386.671	62.46
386.881	64.51
387.091	72.7
387.301	105.47
387.511	121.85
387.72	58.37
387.93	52.22
388.14	-7.17
388.35	105.47
388.56	89.09
388.769	101.37
388.979	107.52
389.189	39.94
389.399	-5.12
389.609	89.09
389.818	78.85
390.028	80.89
390.238	87.04
390.447	52.22
390.657	166.91
390.867	60.42
391.076	50.18
391.286	154.62
391.496	76.8
391.705	89.09
391.915	115.71
392.125	93.18
392.334	103.42
392.544	54.27
392.753	33.79
392.963	41.98
393.172	74.75
393.382	60.42
393.591	99.33
393.801	60.42
394.01	101.37
394.22	130.05
394.429	50.18
394.639	48.13
394.848	76.8
395.058	58.37
395.267	58.37
395.477	148.48
395.686	76.8
395.895	142.33
396.105	156.67
396.314	97.28
396.524	70.65
396.733	99.33
396.942	80.89
397.152	150.53
397.361	95.23
397.57	87.04
397.78	107.52
397.989	44.03
398.198	140.29
398.407	46.08
398.617	105.47
398.826	97.28
399.035	99.33
399.244	117.76
399.453	117.76
399.663	70.65
399.872	115.71
400.081	113.66
400.29	128
400.499	115.71
400.708	138.24
400.917	91.13
401.127	60.42
401.336	134.14
401.545	91.13
401.754	160.77
401.963	142.33
402.172	99.33
402.381	74.75
402.59	119.81
402.799	132.09
403.008	187.39
403.217	128
403.426	160.77
403.635	46.08
403.844	154.62
404.053	183.29
404.262	191.49
404.471	177.15
404.68	189.44
404.888	134.14
405.097	158.72
405.306	197.63
405.515	195.58
405.724	181.25
405.933	191.49
406.142	140.29
406.35	220.16
406.559	193.53
406.768	162.81
406.977	314.36
407.185	234.49
407.394	205.82
407.603	220.16
407.812	228.35
408.02	259.07
408.229	152.57
408.438	330.75
408.646	193.53
408.855	214.01
409.064	281.6
409.272	293.88
409.481	291.84
409.69	314.36
409.898	277.5
410.107	316.41
410.315	431.1
410.524	302.08
410.733	394.23
410.941	379.9
411.15	318.46
411.358	445.43
411.567	480.25
411.775	402.43
411.984	357.37
412.192	517.11
412.401	453.63
412.609	457.72
412.818	500.73
413.026	570.36
413.234	527.35
413.443	592.89
413.651	562.17
413.86	558.07
414.068	629.75
414.276	664.57
414.485	605.17
414.693	703.48
414.901	744.44
415.11	783.35
415.318	773.11
415.526	787.44
415.734	801.78
415.943	850.93
416.151	844.79
416.359	902.13
416.567	852.98
416.776	986.1
416.984	1031.15
417.192	1035.25
417.4	1014.77
417.608	1076.21
417.817	1135.6
418.025	1121.26
418.233	1270.76
418.441	1289.2
418.649	1319.92
418.857	1274.86
419.065	1383.4
419.273	1377.26
419.481	1391.59
419.689	1588.2
419.897	1680.36
420.105	1600.49
420.313	1713.13
420.521	1706.98
420.729	1684.45
420.937	1815.52
421.145	1852.39
421.353	2153.44
421.561	2067.42
421.769	2130.91
421.977	2145.25
422.185	2120.67
422.393	2352.09
422.601	2491.35
422.809	2593.75
423.017	2411.48
423.224	2526.17
423.432	2808.79
423.64	2733.01
423.848	3036.11
424.056	2821.08
424.263	3101.65
424.471	3173.33
424.679	3177.42
424.887	3410.89
425.094	3361.74
425.302	3445.71
425.51	3509.19
425.718	3705.8
425.925	3806.15
426.133	3834.82
426.341	4158.4
426.548	4250.56
426.756	4252.61
426.964	4418.49
427.171	4742.07
427.379	4651.96
427.586	4823.99
427.794	4883.38
428.001	5170.1
428.209	5440.43
428.417	5417.9
428.624	5491.63
428.832	5680.04
429.039	5608.36
429.247	5632.94
429.454	6116.26
429.662	6478.75
429.869	6163.36
430.076	6603.68
430.284	6353.82
430.491	6577.05
430.699	7218.07
430.906	7035.8
431.114	7326.61
431.321	7572.36
431.528	7711.63
431.736	8078.21
431.943	8401.79
432.15	8229.76
432.358	8344.45
432.565	8694.65
432.772	8739.71
432.979	9286.51
433.187	9212.79
433.394	9339.76
433.601	9976.68
433.808	9964.39
434.016	10046.31
434.223	10414.95
434.43	11088.73
434.637	10900.31
434.844	11479.89
435.052	11899.72
435.259	11936.59
435.466	11932.49
435.673	11678.54
435.88	12260.16
436.087	13058.87
436.294	13103.93
436.501	12782.4
436.708	12921.66
436.915	13601.58
437.122	14148.39
437.329	14041.9
437.537	14719.78
437.743	14824.22
437.95	14730.02
438.157	15307.54
438.364	15899.41
438.571	16134.92
438.778	16069.39
438.985	17576.69
439.192	16898.81
439.399	17351.42
439.606	17152.76
439.813	18017.01
440.02	19178.2
440.227	18696.93
440.433	18326.25
440.64	19139.29
440.847	19018.46
441.054	19772.11
441.261	20945.6
441.467	20961.98
441.674	21201.6
441.881	21641.91
442.088	21748.4
442.294	21361.34
442.501	22354.6
442.708	22545.06
442.914	23403.16
443.121	24285.84
443.328	23970.45
443.534	25576.06
443.741	24859.27
443.948	24242.83
444.154	26378.86
444.361	25997.94
444.568	26264.18
444.774	26378.86
444.981	26468.97
445.187	27189.86
445.394	28351.06
445.6	28398.16
445.807	30962.22
446.013	29633.08
446.22	30204.47
446.426	31470.11
446.633	31695.39
446.839	32756.24
447.046	31068.71
447.252	33413.63
447.459	33120.77
447.665	33239.56
447.871	34585.07
448.078	36114.9
448.284	34470.39
448.491	35275.24
448.697	36366.81
448.903	37140.94
449.11	37478.85
449.316	36901.32
449.522	37616.07
449.728	38328.76
449.935	38625.71
450.141	38760.88
450.347	39723.43
450.553	38291.9
450.76	38906.29
450.966	40276.38
451.172	39485.86
451.378	41025.93
451.584	40178.07
451.791	41638.28
451.997	40853.9
452.203	41542.02
452.409	41537.93
452.615	41595.27
452.821	39940.51
453.027	39518.63
453.233	41679.24
453.44	40073.63
453.646	40513.94
453.852	40747.41
454.058	41394.57
454.264	40016.29
454.47	40972.69
454.676	39917.98
454.882	41611.65
455.088	37859.77
455.294	38298.04
455.5	39125.42
455.705	39625.12
455.911	37939.65
456.117	36981.2
456.323	36692.43
456.529	34679.28
456.735	36387.28
456.941	35545.57
457.147	34978.28
457.352	33931.77
457.558	33120.77
457.764	33530.37
457.97	32920.07
458.176	32193.04
458.381	32170.52
458.587	30556.72
458.793	30687.79
458.999	28994.12
459.204	31078.95
459.41	30255.67
459.616	28359.25
459.821	28367.44
460.027	28025.43
460.233	27703.9
460.438	26497.64
460.644	26307.18
460.85	25571.96
461.055	25105.02
461.261	25102.98
461.466	22987.43
461.672	22201.01
461.878	24111.76
462.083	22377.13
462.289	21973.68
462.494	21668.53
462.7	20824.77
462.905	20318.92
463.111	20792
463.316	20855.49
463.522	20474.57
463.727	20783.81
463.932	20763.33
464.138	20413.13
464.343	20632.26
464.549	19710.68
464.754	20570.82
464.959	20378.31
465.165	20032.21
465.37	19364.57
465.575	18838.24
465.781	19536.6
465.986	19772.11
466.191	18854.62
466.397	18553.57
466.602	17634.03
466.807	18305.77
467.012	18324.2
467.218	18047.72
467.423	17971.95
