Data from USB4F104151__88__12-28-14-648.txt Node

Date: Fri Mar 14 12:28:14 EDT 2025
User: louis
Spectrometer: USB4F10415
Trigger mode: 4
Integration Time (sec): 2.000000E-2
Scans to average: 1
Electric dark correction enabled: true
Nonlinearity correction enabled: false
Boxcar width: 0
XAxis mode: Wavelengths
Number of Pixels in Spectrum: 3648
>>>>>Begin Spectral Data<<<<<
178.204	-79.7
178.424	-79.7
178.644	-79.7
178.864	-73.56
179.084	-87.89
179.304	-22.36
179.524	-12.12
179.744	-55.12
179.964	-26.45
180.184	4.27
180.404	28.84
180.624	34.99
180.844	49.32
181.064	39.08
181.283	-38.74
181.503	-24.4
181.723	22.7
181.943	26.79
182.163	71.85
182.383	69.8
182.602	112.81
182.822	30.89
183.042	69.8
183.262	-8.02
183.482	43.18
183.701	55.47
183.921	37.03
184.141	86.19
184.361	88.23
184.58	20.65
184.8	16.55
185.02	6.31
185.239	123.05
185.459	71.85
185.679	32.94
185.898	-48.98
186.118	145.58
186.338	34.99
186.557	92.33
186.777	-32.6
186.997	-10.07
187.216	2.22
187.436	100.52
187.655	53.42
187.875	-22.36
188.095	-16.21
188.314	96.43
188.534	125.1
188.753	6.31
188.973	18.6
189.192	18.6
189.412	86.19
189.631	26.79
189.851	49.32
190.07	75.95
190.29	0.17
190.509	49.32
190.729	-5.97
190.948	92.33
191.168	86.19
191.387	123.05
191.607	45.23
191.826	65.71
192.045	125.1
192.265	102.57
192.484	-20.31
192.704	32.94
192.923	26.79
193.142	106.67
193.362	0.17
193.581	92.33
193.8	-46.93
194.02	61.61
194.239	75.95
194.458	59.56
194.678	45.23
194.897	123.05
195.116	43.18
195.335	55.47
195.555	55.47
195.774	139.43
195.993	45.23
196.212	4.27
196.432	4.27
196.651	28.84
196.87	-8.02
197.089	100.52
197.308	65.71
197.528	112.81
197.747	-5.97
197.966	63.66
198.185	34.99
198.404	-12.12
198.623	47.27
198.842	61.61
199.062	61.61
199.281	65.71
199.5	82.09
199.719	14.51
199.938	135.34
200.157	133.29
200.376	20.65
200.595	112.81
200.814	41.13
201.033	16.55
201.252	8.36
201.471	137.38
201.69	82.09
201.909	49.32
202.128	108.71
202.347	65.71
202.566	30.89
202.785	26.79
203.004	39.08
203.223	86.19
203.442	26.79
203.661	28.84
203.879	43.18
204.098	47.27
204.317	49.32
204.536	108.71
204.755	106.67
204.974	75.95
205.193	51.37
205.411	110.76
205.63	90.28
205.849	8.36
206.068	-24.4
206.287	32.94
206.505	51.37
206.724	133.29
206.943	39.08
207.162	133.29
207.381	51.37
207.599	39.08
207.818	51.37
208.037	41.13
208.255	45.23
208.474	22.7
208.693	-10.07
208.911	30.89
209.13	69.8
209.349	92.33
209.567	118.95
209.786	102.57
210.005	8.36
210.223	96.43
210.442	18.6
210.661	59.56
210.879	18.6
211.098	63.66
211.316	65.71
211.535	84.14
211.753	63.66
211.972	-5.97
212.191	65.71
212.409	18.6
212.628	98.47
212.846	114.86
213.065	8.36
213.283	77.99
213.502	12.46
213.72	80.04
213.938	43.18
214.157	32.94
214.375	59.56
214.594	34.99
214.812	94.38
215.031	32.94
215.249	-22.36
215.467	73.9
215.686	84.14
215.904	65.71
216.122	28.84
216.341	94.38
216.559	10.41
216.778	82.09
216.996	45.23
217.214	94.38
217.432	10.41
217.651	2.22
217.869	39.08
218.087	92.33
218.306	32.94
218.524	98.47
218.742	41.13
218.96	59.56
219.179	37.03
219.397	102.57
219.615	59.56
219.833	57.51
220.051	34.99
220.27	98.47
220.488	94.38
220.706	-1.88
220.924	28.84
221.142	12.46
221.36	8.36
221.578	14.51
221.796	37.03
222.015	65.71
222.233	-1.88
222.451	125.1
222.669	22.7
222.887	98.47
223.105	67.75
223.323	-67.41
223.541	8.36
223.759	55.47
223.977	47.27
224.195	69.8
224.413	37.03
224.631	43.18
224.849	20.65
225.067	135.34
225.285	49.32
225.503	20.65
225.721	4.27
225.939	16.55
226.157	55.47
226.375	67.75
226.592	2.22
226.81	82.09
227.028	26.79
227.246	141.48
227.464	118.95
227.682	82.09
227.9	-5.97
228.117	65.71
228.335	71.85
228.553	65.71
228.771	32.94
228.989	57.51
229.206	71.85
229.424	86.19
229.642	16.55
229.86	110.76
230.077	45.23
230.295	49.32
230.513	51.37
230.731	71.85
230.948	94.38
231.166	45.23
231.384	-3.93
231.601	-32.6
231.819	77.99
232.037	102.57
232.254	37.03
232.472	106.67
232.689	-3.93
232.907	98.47
233.125	16.55
233.342	92.33
233.56	77.99
233.777	12.46
233.995	2.22
234.213	143.53
234.43	98.47
234.648	106.67
234.865	114.86
235.083	0.17
235.3	59.56
235.518	98.47
235.735	102.57
235.953	92.33
236.17	43.18
236.388	77.99
236.605	45.23
236.822	61.61
237.04	18.6
237.257	80.04
237.475	59.56
237.692	39.08
237.909	112.81
238.127	53.42
238.344	106.67
238.562	75.95
238.779	20.65
238.996	39.08
239.214	61.61
239.431	43.18
239.648	24.75
239.865	57.51
240.083	53.42
240.3	14.51
240.517	18.6
240.735	59.56
240.952	100.52
241.169	116.9
241.386	-10.07
241.603	127.14
241.821	32.94
242.038	71.85
242.255	14.51
242.472	-16.21
242.689	88.23
242.907	55.47
243.124	2.22
243.341	90.28
243.558	73.9
243.775	43.18
243.992	69.8
244.209	151.72
244.426	96.43
244.643	149.67
244.86	127.14
245.078	98.47
245.295	37.03
245.512	28.84
245.729	57.51
245.946	61.61
246.163	55.47
246.38	82.09
246.597	-26.45
246.814	6.31
247.031	39.08
247.248	102.57
247.464	63.66
247.681	55.47
247.898	20.65
248.115	49.32
248.332	73.9
248.549	180.39
248.766	37.03
248.983	55.47
249.2	49.32
249.417	98.47
249.633	-8.02
249.85	39.08
250.067	61.61
250.284	96.43
250.501	4.27
250.717	69.8
250.934	-22.36
251.151	-28.5
251.368	61.61
251.585	80.04
251.801	96.43
252.018	34.99
252.235	53.42
252.451	12.46
252.668	43.18
252.885	59.56
253.102	51.37
253.318	43.18
253.535	16.55
253.752	18.6
253.968	41.13
254.185	61.61
254.401	63.66
254.618	53.42
254.835	86.19
255.051	49.32
255.268	39.08
255.484	53.42
255.701	49.32
255.917	45.23
256.134	-24.4
256.351	77.99
256.567	8.36
256.784	90.28
257	49.32
257.217	67.75
257.433	6.31
257.65	82.09
257.866	6.31
258.082	39.08
258.299	80.04
258.515	45.23
258.732	98.47
258.948	61.61
259.165	53.42
259.381	55.47
259.597	61.61
259.814	43.18
260.03	170.15
260.246	73.9
260.463	4.27
260.679	22.7
260.895	139.43
261.112	80.04
261.328	55.47
261.544	4.27
261.761	86.19
261.977	6.31
262.193	37.03
262.409	28.84
262.626	53.42
262.842	65.71
263.058	80.04
263.274	41.13
263.49	24.75
263.707	82.09
263.923	80.04
264.139	-10.07
264.355	49.32
264.571	80.04
264.787	61.61
265.004	129.19
265.22	88.23
265.436	12.46
265.652	26.79
265.868	10.41
266.084	20.65
266.3	69.8
266.516	61.61
266.732	-12.12
266.948	96.43
267.164	-1.88
267.38	28.84
267.596	110.76
267.812	47.27
268.028	88.23
268.244	2.22
268.46	98.47
268.676	4.27
268.892	47.27
269.108	51.37
269.324	45.23
269.54	-5.97
269.756	100.52
269.972	57.51
270.188	-8.02
270.403	61.61
270.619	59.56
270.835	-8.02
271.051	84.14
271.267	37.03
271.483	53.42
271.698	133.29
271.914	12.46
272.13	65.71
272.346	20.65
272.562	26.79
272.777	61.61
272.993	45.23
273.209	41.13
273.425	157.86
273.64	96.43
273.856	47.27
274.072	34.99
274.287	51.37
274.503	18.6
274.719	61.61
274.934	61.61
275.15	34.99
275.366	32.94
275.581	82.09
275.797	-8.02
276.012	112.81
276.228	118.95
276.444	106.67
276.659	63.66
276.875	82.09
277.09	28.84
277.306	82.09
277.521	67.75
277.737	65.71
277.952	172.2
278.168	106.67
278.383	75.95
278.599	82.09
278.814	75.95
279.03	34.99
279.245	110.76
279.461	37.03
279.676	32.94
279.892	51.37
280.107	37.03
280.322	-40.79
280.538	92.33
280.753	45.23
280.969	49.32
281.184	71.85
281.399	104.62
281.615	43.18
281.83	65.71
282.045	53.42
282.26	63.66
282.476	84.14
282.691	82.09
282.906	88.23
283.122	59.56
283.337	71.85
283.552	88.23
283.767	71.85
283.983	20.65
284.198	53.42
284.413	75.95
284.628	67.75
284.843	106.67
285.058	34.99
285.274	39.08
285.489	55.47
285.704	75.95
285.919	90.28
286.134	43.18
286.349	65.71
286.564	8.36
286.779	-14.17
286.995	80.04
287.21	67.75
287.425	102.57
287.64	30.89
287.855	39.08
288.07	49.32
288.285	16.55
288.5	92.33
288.715	86.19
288.93	55.47
289.145	43.18
289.36	43.18
289.575	41.13
289.79	94.38
290.004	63.66
290.219	26.79
290.434	47.27
290.649	-67.41
290.864	20.65
291.079	22.7
291.294	-34.64
291.509	75.95
291.724	100.52
291.938	65.71
292.153	32.94
292.368	-1.88
292.583	88.23
292.798	108.71
293.012	215.21
293.227	41.13
293.442	73.9
293.657	90.28
293.871	39.08
294.086	0.17
294.301	71.85
294.516	98.47
294.73	63.66
294.945	131.24
295.16	12.46
295.374	98.47
295.589	80.04
295.804	100.52
296.018	28.84
296.233	53.42
296.447	75.95
296.662	0.17
296.877	71.85
297.091	100.52
297.306	45.23
297.52	34.99
297.735	125.1
297.949	80.04
298.164	61.61
298.378	51.37
298.593	-22.36
298.807	98.47
299.022	61.61
299.236	100.52
299.451	73.9
299.665	75.95
299.88	92.33
300.094	59.56
300.309	8.36
300.523	51.37
300.737	71.85
300.952	100.52
301.166	30.89
301.381	6.31
301.595	61.61
301.809	45.23
302.024	34.99
302.238	55.47
302.452	18.6
302.667	37.03
302.881	98.47
303.095	41.13
303.309	26.79
303.524	73.9
303.738	20.65
303.952	71.85
304.166	90.28
304.381	20.65
304.595	69.8
304.809	59.56
305.023	96.43
305.237	18.6
305.452	55.47
305.666	94.38
305.88	133.29
306.094	59.56
306.308	135.34
306.522	37.03
306.736	92.33
306.95	65.71
307.164	45.23
307.379	116.9
307.593	88.23
307.807	14.51
308.021	18.6
308.235	123.05
308.449	67.75
308.663	12.46
308.877	114.86
309.091	41.13
309.305	69.8
309.519	71.85
309.733	37.03
309.947	49.32
310.161	133.29
310.374	106.67
310.588	80.04
310.802	77.99
311.016	16.55
311.23	37.03
311.444	51.37
311.658	53.42
311.872	86.19
312.085	32.94
312.299	145.58
312.513	10.41
312.727	2.22
312.941	65.71
313.154	26.79
313.368	75.95
313.582	100.52
313.796	14.51
314.009	43.18
314.223	49.32
314.437	112.81
314.651	90.28
314.864	47.27
315.078	80.04
315.292	131.24
315.505	71.85
315.719	86.19
315.933	51.37
316.146	6.31
316.36	63.66
316.573	96.43
316.787	92.33
317.001	123.05
317.214	88.23
317.428	10.41
317.641	53.42
317.855	41.13
318.068	118.95
318.282	131.24
318.495	-5.97
318.709	69.8
318.922	55.47
319.136	41.13
319.349	188.58
319.563	118.95
319.776	108.71
319.99	94.38
320.203	69.8
320.417	49.32
320.63	82.09
320.843	75.95
321.057	-3.93
321.27	-22.36
321.483	118.95
321.697	84.14
321.91	102.57
322.124	94.38
322.337	131.24
322.55	16.55
322.763	20.65
322.977	80.04
323.19	59.56
323.403	57.51
323.617	67.75
323.83	88.23
324.043	102.57
324.256	75.95
324.469	49.32
324.683	139.43
324.896	30.89
325.109	121
325.322	55.47
325.535	116.9
325.748	65.71
325.962	53.42
326.175	41.13
326.388	80.04
326.601	32.94
326.814	77.99
327.027	43.18
327.24	145.58
327.453	71.85
327.666	39.08
327.879	75.95
328.092	55.47
328.305	12.46
328.518	39.08
328.731	28.84
328.944	8.36
329.157	67.75
329.37	73.9
329.583	135.34
329.796	61.61
330.009	8.36
330.222	90.28
330.435	127.14
330.648	104.62
330.861	94.38
331.073	73.9
331.286	43.18
331.499	77.99
331.712	92.33
331.925	69.8
332.138	16.55
332.35	80.04
332.563	-3.93
332.776	137.38
332.989	37.03
333.202	77.99
333.414	84.14
333.627	-1.88
333.84	41.13
334.053	106.67
334.265	73.9
334.478	63.66
334.691	67.75
334.903	20.65
335.116	39.08
335.329	121
335.541	61.61
335.754	174.25
335.966	141.48
336.179	94.38
336.392	18.6
336.604	92.33
336.817	71.85
337.029	39.08
337.242	114.86
337.454	34.99
337.667	90.28
337.88	69.8
338.092	80.04
338.305	77.99
338.517	71.85
338.729	104.62
338.942	125.1
339.154	110.76
339.367	82.09
339.579	67.75
339.792	47.27
340.004	80.04
340.217	106.67
340.429	145.58
340.641	30.89
340.854	92.33
341.066	96.43
341.278	133.29
341.491	61.61
341.703	37.03
341.915	37.03
342.128	20.65
342.34	86.19
342.552	69.8
342.764	41.13
342.977	34.99
343.189	69.8
343.401	67.75
343.613	30.89
343.826	28.84
344.038	61.61
344.25	63.66
344.462	143.53
344.674	80.04
344.886	104.62
345.099	65.71
345.311	65.71
345.523	71.85
345.735	24.75
345.947	-1.88
346.159	49.32
346.371	92.33
346.583	0.17
346.795	137.38
347.007	84.14
347.219	75.95
347.431	41.13
347.643	88.23
347.855	28.84
348.067	147.62
348.279	80.04
348.491	67.75
348.703	82.09
348.915	88.23
349.127	14.51
349.339	73.9
349.551	57.51
349.763	141.48
349.975	55.47
350.187	159.91
350.399	149.67
350.61	90.28
350.822	80.04
351.034	80.04
351.246	71.85
351.458	61.61
351.669	90.28
351.881	129.19
352.093	98.47
352.305	53.42
352.517	84.14
352.728	73.9
352.94	110.76
353.152	131.24
353.363	61.61
353.575	77.99
353.787	104.62
353.999	96.43
354.21	149.67
354.422	84.14
354.633	65.71
354.845	88.23
355.057	63.66
355.268	86.19
355.48	45.23
355.692	57.51
355.903	32.94
356.115	41.13
356.326	28.84
356.538	77.99
356.749	116.9
356.961	131.24
357.172	41.13
357.384	41.13
357.595	69.8
357.807	104.62
358.018	100.52
358.23	127.14
358.441	65.71
358.653	14.51
358.864	34.99
359.075	49.32
359.287	88.23
359.498	112.81
359.709	63.66
359.921	172.2
360.132	102.57
360.344	43.18
360.555	80.04
360.766	102.57
360.977	84.14
361.189	73.9
361.4	63.66
361.611	133.29
361.823	86.19
362.034	71.85
362.245	61.61
362.456	98.47
362.667	73.9
362.879	41.13
363.09	90.28
363.301	-32.6
363.512	39.08
363.723	90.28
363.935	30.89
364.146	86.19
364.357	133.29
364.568	84.14
364.779	63.66
364.99	24.75
365.201	41.13
365.412	98.47
365.623	86.19
365.834	63.66
366.045	104.62
366.256	137.38
366.467	12.46
366.678	63.66
366.889	28.84
367.1	82.09
367.311	139.43
367.522	71.85
367.733	131.24
367.944	153.77
368.155	24.75
368.366	84.14
368.577	61.61
368.788	106.67
368.999	24.75
369.209	94.38
369.42	127.14
369.631	88.23
369.842	123.05
370.053	106.67
370.264	63.66
370.474	94.38
370.685	98.47
370.896	155.82
371.107	98.47
371.317	69.8
371.528	75.95
371.739	135.34
371.95	75.95
372.16	133.29
372.371	112.81
372.582	77.99
372.792	96.43
373.003	55.47
373.214	49.32
373.424	106.67
373.635	37.03
373.846	135.34
374.056	69.8
374.267	90.28
374.477	106.67
374.688	80.04
374.898	10.41
375.109	90.28
375.319	196.78
375.53	106.67
375.74	106.67
375.951	75.95
376.161	135.34
376.372	61.61
376.582	69.8
376.793	90.28
377.003	57.51
377.214	84.14
377.424	26.79
377.635	88.23
377.845	37.03
378.055	121
378.266	75.95
378.476	108.71
378.686	80.04
378.897	80.04
379.107	106.67
379.317	121
379.528	61.61
379.738	108.71
379.948	127.14
380.158	65.71
380.369	39.08
380.579	57.51
380.789	53.42
380.999	67.75
381.21	141.48
381.42	159.91
381.63	176.3
381.84	98.47
382.05	14.51
382.261	108.71
382.471	82.09
382.681	125.1
382.891	100.52
383.101	164.01
383.311	145.58
383.521	63.66
383.731	63.66
383.941	57.51
384.151	104.62
384.361	94.38
384.571	106.67
384.781	96.43
384.991	118.95
385.201	69.8
385.411	129.19
385.621	102.57
385.831	108.71
386.041	149.67
386.251	90.28
386.461	127.14
386.671	121
386.881	147.62
387.091	116.9
387.301	90.28
387.511	129.19
387.72	104.62
387.93	88.23
388.14	133.29
388.35	104.62
388.56	110.76
388.769	170.15
388.979	92.33
389.189	20.65
389.399	149.67
389.609	123.05
389.818	110.76
390.028	75.95
390.238	182.44
390.447	96.43
390.657	139.43
390.867	110.76
391.076	170.15
391.286	49.32
391.496	92.33
391.705	75.95
391.915	80.04
392.125	112.81
392.334	155.82
392.544	118.95
392.753	211.11
392.963	88.23
393.172	49.32
393.382	133.29
393.591	100.52
393.801	143.53
394.01	84.14
394.22	186.54
394.429	151.72
394.639	149.67
394.848	96.43
395.058	180.39
395.267	96.43
395.477	116.9
395.686	170.15
395.895	143.53
396.105	213.16
396.314	176.3
396.524	166.06
396.733	180.39
396.942	129.19
397.152	121
397.361	116.9
397.57	125.1
397.78	104.62
397.989	172.2
398.198	204.97
398.407	198.82
398.617	90.28
398.826	143.53
399.035	178.34
399.244	159.91
399.453	164.01
399.663	186.54
399.872	121
400.081	125.1
400.29	200.87
400.499	116.9
400.708	190.63
400.917	198.82
401.127	231.59
401.336	133.29
401.545	209.06
401.754	178.34
401.963	186.54
402.172	168.1
402.381	200.87
402.59	149.67
402.799	207.02
403.008	180.39
403.217	229.54
403.426	219.3
403.635	125.1
403.844	196.78
404.053	227.5
404.262	157.86
404.471	221.35
404.68	200.87
404.888	221.35
405.097	176.3
405.306	254.12
405.515	323.75
405.724	288.93
405.933	264.36
406.142	237.74
406.35	219.3
406.559	229.54
406.768	272.55
406.977	338.09
407.185	266.41
407.394	284.84
407.603	268.45
407.812	268.45
408.02	276.65
408.229	333.99
408.438	385.19
408.646	336.04
408.855	276.65
409.064	426.15
409.272	411.81
409.481	420
409.69	366.76
409.898	350.37
410.107	407.72
410.315	446.63
410.524	346.28
410.733	479.4
410.941	428.2
411.15	614.56
411.358	530.59
411.567	508.07
411.775	526.5
411.984	538.79
412.192	549.03
412.401	630.95
412.609	651.42
412.818	708.77
413.026	616.61
413.234	671.9
413.443	694.43
413.651	727.2
413.86	792.73
414.068	837.79
414.276	802.97
414.485	821.41
414.693	876.7
414.901	813.21
415.11	913.56
415.318	1013.92
415.526	1042.59
415.734	1128.6
415.943	1018.01
416.151	1132.7
416.359	1061.02
416.567	1163.42
416.776	1140.89
416.984	1269.91
417.192	1276.06
417.4	1314.97
417.608	1353.88
417.817	1388.69
418.025	1552.53
418.233	1697.94
418.441	1581.2
418.649	1650.83
418.857	1687.7
419.065	1710.22
419.273	1779.86
419.481	1851.53
419.689	2029.71
419.897	1992.84
420.105	2062.48
420.313	2115.72
420.521	2134.15
420.729	2134.15
420.937	2302.09
421.145	2357.38
421.353	2437.25
421.561	2621.57
421.769	2732.16
421.977	2728.07
422.185	2707.59
422.393	2990.21
422.601	3029.12
422.809	2996.35
423.017	3080.32
423.224	3211.39
423.432	3272.82
423.64	3346.55
423.848	3461.24
424.056	3534.96
424.263	3842.16
424.471	3852.4
424.679	3782.77
424.887	4126.83
425.094	4173.93
425.302	4364.39
425.51	4522.09
425.718	4616.29
425.925	4661.35
426.133	4862.05
426.341	4913.25
426.548	5220.44
426.756	5124.19
426.964	5328.99
427.171	5548.12
427.379	5716.05
427.586	5834.83
427.794	6086.73
428.001	6330.44
428.209	6619.21
428.417	6473.8
428.624	6854.72
428.832	6963.26
429.039	6844.48
429.247	6971.46
429.454	7665.72
429.662	7999.54
429.869	7653.43
430.076	8013.87
430.284	7981.1
430.491	8224.81
430.699	8820.77
430.906	8679.46
431.114	8820.77
431.321	9189.41
431.528	9226.27
431.736	9908.24
431.943	10319.89
432.15	9926.68
432.358	10102.8
432.565	10612.74
432.772	10760.2
432.979	11401.21
433.187	11368.45
433.394	11196.42
433.601	12290.03
433.808	12316.65
434.016	12265.46
434.223	12541.93
434.43	13637.59
434.637	13471.71
434.844	14065.62
435.052	14149.59
435.259	14170.07
435.466	14692.3
435.673	14256.08
435.88	15394.75
436.087	15873.98
436.294	16046.01
436.501	15771.58
436.708	16154.55
436.915	16721.84
437.122	17090.47
437.329	17117.09
437.537	17735.58
437.743	18030.49
437.95	17981.34
438.157	18562.96
438.364	19437.44
438.571	19392.39
438.778	19689.34
438.985	21307.24
439.192	20584.3
439.399	21272.42
439.606	20864.88
439.813	21813.09
440.02	23244.62
440.227	22783.82
440.433	22671.18
440.64	23416.65
440.847	23166.79
441.054	23766.85
441.261	25575.2
441.467	24835.89
441.674	25573.16
441.881	26586.9
442.088	26205.98
442.294	26412.82
442.501	26961.68
442.708	27453.19
442.914	28606.2
443.121	29546.22
443.328	29179.63
443.534	31026.9
443.741	29986.53
443.948	29474.54
444.154	31942.34
444.361	31823.56
444.568	31780.55
444.774	32083.65
444.981	32480.96
445.187	33167.02
445.394	34811.54
445.6	34262.69
445.807	37668.46
446.013	35677.83
446.22	36470.4
446.426	38057.57
446.633	38180.45
446.839	39585.36
447.046	37813.87
447.252	39714.38
447.459	40162.89
447.665	39900.75
447.871	42200.61
448.078	43226.65
448.284	41328.18
448.491	42663.46
448.697	44137.99
448.903	45012.48
449.11	45006.33
449.316	44393.99
449.522	45159.93
449.728	46542.31
449.935	46566.88
450.141	46398.95
450.347	48160.2
450.553	46210.54
450.76	46869.98
450.966	48274.89
451.172	48131.53
451.378	48969.15
451.584	48035.28
451.791	49405.37
451.997	49173.95
452.203	50265.52
452.409	49817.01
452.615	49821.11
452.821	47492.57
453.027	48033.23
453.233	49888.69
453.44	48221.64
453.646	48813.51
453.852	49083.84
454.058	49790.39
454.264	48197.07
454.47	49434.04
454.676	48127.44
454.882	49776.05
455.088	45368.82
455.294	46294.5
455.5	46548.45
455.705	47238.62
455.911	45835.76
456.117	44832.25
456.323	44019.21
456.529	41684.53
456.735	43214.36
456.941	42718.75
457.147	41975.34
457.352	40635.97
457.558	40150.6
457.764	40406.59
457.97	39382.61
458.176	38559.33
458.381	38921.82
458.587	36851.32
458.793	36757.11
458.999	34825.88
459.204	37619.31
459.41	36359.81
459.616	33773.22
459.821	34066.08
460.027	33865.38
460.233	33250.99
460.438	31815.37
460.644	31940.29
460.85	30656.21
461.055	29728.49
461.261	30269.15
461.466	27897.6
461.672	27195.15
461.878	28602.1
462.083	26976.02
462.289	26595.09
462.494	26193.69
462.7	25014.06
462.905	24194.87
463.111	25179.95
463.316	25358.12
463.522	24559.41
463.727	24907.57
463.932	24917.81
464.138	24643.38
464.343	24327.99
464.549	23875.39
464.754	24567.6
464.959	24153.91
465.165	24149.82
465.37	23103.31
465.575	22423.38
465.781	23562.05
465.986	23527.24
466.191	22732.62
