Data from USB4F104151__69__12-27-45-312.txt Node

Date: Fri Mar 14 12:27:45 EDT 2025
User: louis
Spectrometer: USB4F10415
Trigger mode: 4
Integration Time (sec): 2.000000E-2
Scans to average: 1
Electric dark correction enabled: true
Nonlinearity correction enabled: false
Boxcar width: 0
XAxis mode: Wavelengths
Number of Pixels in Spectrum: 3648
>>>>>Begin Spectral Data<<<<<
178.204	-77.65
178.424	-77.65
178.644	-77.65
178.864	-73.56
179.084	-75.6
179.304	-22.36
179.524	-8.02
179.744	-22.36
179.964	57.51
180.184	-22.36
180.404	53.42
180.624	12.46
180.844	-18.26
181.064	-67.41
181.283	10.41
181.503	-8.02
181.723	34.99
181.943	49.32
182.163	59.56
182.383	-61.27
182.602	84.14
182.822	61.61
183.042	-12.12
183.262	20.65
183.482	16.55
183.701	59.56
183.921	141.48
184.141	-10.07
184.361	-16.21
184.58	53.42
184.8	14.51
185.02	30.89
185.239	-14.17
185.459	-16.21
185.679	39.08
185.898	-14.17
186.118	65.71
186.338	45.23
186.557	63.66
186.777	14.51
186.997	59.56
187.216	57.51
187.436	41.13
187.655	32.94
187.875	51.37
188.095	14.51
188.314	139.43
188.534	100.52
188.753	37.03
188.973	18.6
189.192	43.18
189.412	-14.17
189.631	61.61
189.851	39.08
190.07	51.37
190.29	-8.02
190.509	24.75
190.729	37.03
190.948	55.47
191.168	96.43
191.387	16.55
191.607	6.31
191.826	45.23
192.045	34.99
192.265	61.61
192.484	4.27
192.704	-10.07
192.923	30.89
193.142	39.08
193.362	-28.5
193.581	39.08
193.8	-30.55
194.02	57.51
194.239	10.41
194.458	82.09
194.678	8.36
194.897	-16.21
195.116	8.36
195.335	53.42
195.555	6.31
195.774	18.6
195.993	61.61
196.212	59.56
196.432	4.27
196.651	22.7
196.87	18.6
197.089	69.8
197.308	51.37
197.528	37.03
197.747	22.7
197.966	-26.45
198.185	28.84
198.404	-8.02
198.623	65.71
198.842	37.03
199.062	41.13
199.281	47.27
199.5	53.42
199.719	10.41
199.938	67.75
200.157	59.56
200.376	-3.93
200.595	28.84
200.814	2.22
201.033	63.66
201.252	4.27
201.471	53.42
201.69	-5.97
201.909	10.41
202.128	-83.8
202.347	108.71
202.566	47.27
202.785	18.6
203.004	-10.07
203.223	137.38
203.442	-12.12
203.661	-51.03
203.879	-12.12
204.098	71.85
204.317	-10.07
204.536	114.86
204.755	53.42
204.974	6.31
205.193	133.29
205.411	94.38
205.63	32.94
205.849	8.36
206.068	-32.6
206.287	-10.07
206.505	22.7
206.724	30.89
206.943	-77.65
207.162	80.04
207.381	6.31
207.599	-3.93
207.818	90.28
208.037	-10.07
208.255	24.75
208.474	34.99
208.693	30.89
208.911	26.79
209.13	59.56
209.349	94.38
209.567	12.46
209.786	30.89
210.005	30.89
210.223	-32.6
210.442	-42.84
210.661	-10.07
210.879	6.31
211.098	20.65
211.316	32.94
211.535	32.94
211.753	-18.26
211.972	20.65
212.191	22.7
212.409	28.84
212.628	39.08
212.846	20.65
213.065	49.32
213.283	43.18
213.502	30.89
213.72	116.9
213.938	-16.21
214.157	77.99
214.375	14.51
214.594	-26.45
214.812	28.84
215.031	12.46
215.249	-14.17
215.467	26.79
215.686	43.18
215.904	41.13
216.122	49.32
216.341	0.17
216.559	24.75
216.778	82.09
216.996	49.32
217.214	86.19
217.432	-12.12
217.651	-16.21
217.869	-20.31
218.087	73.9
218.306	112.81
218.524	71.85
218.742	-16.21
218.96	8.36
219.179	6.31
219.397	32.94
219.615	96.43
219.833	47.27
220.051	-69.46
220.27	125.1
220.488	2.22
220.706	57.51
220.924	32.94
221.142	-3.93
221.36	28.84
221.578	-100.18
221.796	6.31
222.015	63.66
222.233	53.42
222.451	37.03
222.669	-14.17
222.887	65.71
223.105	8.36
223.323	39.08
223.541	-12.12
223.759	12.46
223.977	22.7
224.195	65.71
224.413	71.85
224.631	34.99
224.849	-26.45
225.067	51.37
225.285	22.7
225.503	41.13
225.721	24.75
225.939	90.28
226.157	45.23
226.375	39.08
226.592	12.46
226.81	41.13
227.028	-30.55
227.246	114.86
227.464	6.31
227.682	100.52
227.9	45.23
228.117	67.75
228.335	10.41
228.553	69.8
228.771	24.75
228.989	37.03
229.206	47.27
229.424	28.84
229.642	20.65
229.86	84.14
230.077	-61.27
230.295	77.99
230.513	55.47
230.731	106.67
230.948	-10.07
231.166	71.85
231.384	-1.88
231.601	10.41
231.819	75.95
232.037	20.65
232.254	0.17
232.472	2.22
232.689	-18.26
232.907	10.41
233.125	45.23
233.342	45.23
233.56	49.32
233.777	16.55
233.995	69.8
234.213	24.75
234.43	-1.88
234.648	96.43
234.865	26.79
235.083	69.8
235.3	6.31
235.518	-18.26
235.735	4.27
235.953	8.36
236.17	4.27
236.388	-40.79
236.605	77.99
236.822	43.18
237.04	90.28
237.257	49.32
237.475	10.41
237.692	26.79
237.909	82.09
238.127	90.28
238.344	-8.02
238.562	53.42
238.779	34.99
238.996	-22.36
239.214	121
239.431	106.67
239.648	43.18
239.865	71.85
240.083	104.62
240.3	16.55
240.517	18.6
240.735	49.32
240.952	-5.97
241.169	6.31
241.386	34.99
241.603	63.66
241.821	49.32
242.038	67.75
242.255	47.27
242.472	-3.93
242.689	69.8
242.907	6.31
243.124	8.36
243.341	37.03
243.558	-5.97
243.775	112.81
243.992	-3.93
244.209	-1.88
244.426	102.57
244.643	129.19
244.86	73.9
245.078	-8.02
245.295	43.18
245.512	43.18
245.729	12.46
245.946	-28.5
246.163	53.42
246.38	80.04
246.597	22.7
246.814	4.27
247.031	67.75
247.248	37.03
247.464	69.8
247.681	37.03
247.898	-5.97
248.115	84.14
248.332	-16.21
248.549	37.03
248.766	112.81
248.983	92.33
249.2	-3.93
249.417	49.32
249.633	24.75
249.85	102.57
250.067	43.18
250.284	49.32
250.501	-22.36
250.717	-1.88
250.934	22.7
251.151	127.14
251.368	67.75
251.585	47.27
251.801	32.94
252.018	41.13
252.235	-10.07
252.451	-32.6
252.668	-1.88
252.885	71.85
253.102	34.99
253.318	-3.93
253.535	98.47
253.752	10.41
253.968	8.36
254.185	2.22
254.401	108.71
254.618	39.08
254.835	6.31
255.051	125.1
255.268	32.94
255.484	55.47
255.701	4.27
255.917	24.75
256.134	51.37
256.351	77.99
256.567	-12.12
256.784	8.36
257	-3.93
257.217	59.56
257.433	94.38
257.65	80.04
257.866	67.75
258.082	65.71
258.299	39.08
258.515	10.41
258.732	57.51
258.948	65.71
259.165	0.17
259.381	61.61
259.597	57.51
259.814	-5.97
260.03	39.08
260.246	0.17
260.463	43.18
260.679	59.56
260.895	43.18
261.112	45.23
261.328	18.6
261.544	18.6
261.761	59.56
261.977	80.04
262.193	-65.36
262.409	-30.55
262.626	45.23
262.842	114.86
263.058	37.03
263.274	86.19
263.49	28.84
263.707	-1.88
263.923	-10.07
264.139	-77.65
264.355	12.46
264.571	32.94
264.787	32.94
265.004	73.9
265.22	-20.31
265.436	-32.6
265.652	37.03
265.868	16.55
266.084	32.94
266.3	-26.45
266.516	10.41
266.732	0.17
266.948	69.8
267.164	94.38
267.38	86.19
267.596	-22.36
267.812	65.71
268.028	10.41
268.244	20.65
268.46	32.94
268.676	26.79
268.892	118.95
269.108	14.51
269.324	53.42
269.54	6.31
269.756	73.9
269.972	34.99
270.188	57.51
270.403	32.94
270.619	-5.97
270.835	32.94
271.051	20.65
271.267	2.22
271.483	-38.74
271.698	37.03
271.914	123.05
272.13	59.56
272.346	30.89
272.562	-12.12
272.777	14.51
272.993	18.6
273.209	108.71
273.425	-46.93
273.64	80.04
273.856	26.79
274.072	10.41
274.287	20.65
274.503	-8.02
274.719	8.36
274.934	-18.26
275.15	63.66
275.366	14.51
275.581	10.41
275.797	34.99
276.012	-24.4
276.228	53.42
276.444	75.95
276.659	22.7
276.875	-12.12
277.09	59.56
277.306	6.31
277.521	-24.4
277.737	41.13
277.952	45.23
278.168	32.94
278.383	41.13
278.599	18.6
278.814	41.13
279.03	28.84
279.245	94.38
279.461	-5.97
279.676	94.38
279.892	80.04
280.107	32.94
280.322	71.85
280.538	6.31
280.753	39.08
280.969	59.56
281.184	16.55
281.399	100.52
281.615	-8.02
281.83	80.04
282.045	49.32
282.26	8.36
282.476	53.42
282.691	106.67
282.906	39.08
283.122	16.55
283.337	24.75
283.552	82.09
283.767	4.27
283.983	47.27
284.198	71.85
284.413	61.61
284.628	73.9
284.843	57.51
285.058	24.75
285.274	41.13
285.489	88.23
285.704	75.95
285.919	30.89
286.134	55.47
286.349	4.27
286.564	49.32
286.779	45.23
286.995	8.36
287.21	-38.74
287.425	-22.36
287.64	45.23
287.855	43.18
288.07	4.27
288.285	30.89
288.5	20.65
288.715	53.42
288.93	-8.02
289.145	43.18
289.36	34.99
289.575	69.8
289.79	49.32
290.004	116.9
290.219	37.03
290.434	65.71
290.649	30.89
290.864	-46.93
291.079	-3.93
291.294	24.75
291.509	65.71
291.724	41.13
291.938	77.99
292.153	92.33
292.368	12.46
292.583	-10.07
292.798	18.6
293.012	41.13
293.227	80.04
293.442	20.65
293.657	55.47
293.871	2.22
294.086	34.99
294.301	71.85
294.516	57.51
294.73	-8.02
294.945	28.84
295.16	16.55
295.374	26.79
295.589	12.46
295.804	-12.12
296.018	41.13
296.233	67.75
296.447	-65.36
296.662	-22.36
296.877	45.23
297.091	32.94
297.306	28.84
297.52	-10.07
297.735	0.17
297.949	98.47
298.164	80.04
298.378	28.84
298.593	61.61
298.807	82.09
299.022	51.37
299.236	12.46
299.451	2.22
299.665	20.65
299.88	-12.12
300.094	-5.97
300.309	2.22
300.523	-3.93
300.737	20.65
300.952	75.95
301.166	63.66
301.381	28.84
301.595	49.32
301.809	16.55
302.024	10.41
302.238	28.84
302.452	145.58
302.667	-59.22
302.881	94.38
303.095	-1.88
303.309	61.61
303.524	26.79
303.738	8.36
303.952	57.51
304.166	-10.07
304.381	-46.93
304.595	32.94
304.809	43.18
305.023	18.6
305.237	-34.64
305.452	34.99
305.666	20.65
305.88	59.56
306.094	84.14
306.308	39.08
306.522	41.13
306.736	65.71
306.95	59.56
307.164	22.7
307.379	80.04
307.593	55.47
307.807	88.23
308.021	43.18
308.235	45.23
308.449	6.31
308.663	-18.26
308.877	114.86
309.091	92.33
309.305	139.43
309.519	6.31
309.733	49.32
309.947	30.89
310.161	73.9
310.374	59.56
310.588	96.43
310.802	24.75
311.016	28.84
311.23	94.38
311.444	18.6
311.658	104.62
311.872	94.38
312.085	59.56
312.299	90.28
312.513	43.18
312.727	18.6
312.941	-18.26
313.154	110.76
313.368	2.22
313.582	96.43
313.796	-20.31
314.009	94.38
314.223	49.32
314.437	63.66
314.651	32.94
314.864	88.23
315.078	59.56
315.292	18.6
315.505	32.94
315.719	45.23
315.933	102.57
316.146	16.55
316.36	22.7
316.573	65.71
316.787	98.47
317.001	73.9
317.214	-51.03
317.428	41.13
317.641	59.56
317.855	-1.88
318.068	32.94
318.282	34.99
318.495	32.94
318.709	-32.6
318.922	108.71
319.136	41.13
319.349	49.32
319.563	14.51
319.776	67.75
319.99	51.37
320.203	84.14
320.417	102.57
320.63	65.71
320.843	71.85
321.057	2.22
321.27	47.27
321.483	39.08
321.697	63.66
321.91	-8.02
322.124	61.61
322.337	2.22
322.55	24.75
322.763	75.95
322.977	-16.21
323.19	-40.79
323.403	20.65
323.617	2.22
323.83	22.7
324.043	69.8
324.256	4.27
324.469	-12.12
324.683	59.56
324.896	-22.36
325.109	45.23
325.322	39.08
325.535	12.46
325.748	86.19
325.962	41.13
326.175	24.75
326.388	43.18
326.601	110.76
326.814	6.31
327.027	24.75
327.24	67.75
327.453	45.23
327.666	94.38
327.879	6.31
328.092	49.32
328.305	24.75
328.518	47.27
328.731	114.86
328.944	96.43
329.157	51.37
329.37	2.22
329.583	75.95
329.796	55.47
330.009	8.36
330.222	96.43
330.435	90.28
330.648	57.51
330.861	90.28
331.073	10.41
331.286	8.36
331.499	24.75
331.712	16.55
331.925	67.75
332.138	73.9
332.35	129.19
332.563	55.47
332.776	55.47
332.989	34.99
333.202	57.51
333.414	14.51
333.627	127.14
333.84	-59.22
334.053	26.79
334.265	4.27
334.478	14.51
334.691	73.9
334.903	106.67
335.116	69.8
335.329	63.66
335.541	2.22
335.754	55.47
335.966	84.14
336.179	61.61
336.392	45.23
336.604	-14.17
336.817	125.1
337.029	18.6
337.242	-8.02
337.454	98.47
337.667	75.95
337.88	90.28
338.092	67.75
338.305	112.81
338.517	59.56
338.729	34.99
338.942	123.05
339.154	18.6
339.367	-32.6
339.579	116.9
339.792	22.7
340.004	98.47
340.217	51.37
340.429	37.03
340.641	14.51
340.854	63.66
341.066	84.14
341.278	67.75
341.491	168.1
341.703	49.32
341.915	55.47
342.128	-22.36
342.34	-12.12
342.552	71.85
342.764	114.86
342.977	-1.88
343.189	59.56
343.401	45.23
343.613	28.84
343.826	43.18
344.038	14.51
344.25	127.14
344.462	6.31
344.674	47.27
344.886	34.99
345.099	116.9
345.311	65.71
345.523	123.05
345.735	-5.97
345.947	51.37
346.159	59.56
346.371	2.22
346.583	12.46
346.795	2.22
347.007	118.95
347.219	161.96
347.431	84.14
347.643	12.46
347.855	37.03
348.067	69.8
348.279	-26.45
348.491	22.7
348.703	77.99
348.915	63.66
349.127	-10.07
349.339	43.18
349.551	22.7
349.763	28.84
349.975	32.94
350.187	77.99
350.399	84.14
350.61	69.8
350.822	26.79
351.034	53.42
351.246	-16.21
351.458	59.56
351.669	22.7
351.881	-20.31
352.093	12.46
352.305	108.71
352.517	30.89
352.728	114.86
352.94	80.04
353.152	106.67
353.363	69.8
353.575	75.95
353.787	92.33
353.999	28.84
354.21	84.14
354.422	43.18
354.633	37.03
354.845	45.23
355.057	32.94
355.268	88.23
355.48	82.09
355.692	28.84
355.903	-14.17
356.115	-40.79
356.326	8.36
356.538	55.47
356.749	139.43
356.961	49.32
357.172	14.51
357.384	26.79
357.595	80.04
357.807	73.9
358.018	53.42
358.23	12.46
358.441	96.43
358.653	32.94
358.864	26.79
359.075	0.17
359.287	61.61
359.498	104.62
359.709	20.65
359.921	67.75
360.132	65.71
360.344	106.67
360.555	34.99
360.766	-3.93
360.977	98.47
361.189	51.37
361.4	12.46
361.611	102.57
361.823	80.04
362.034	51.37
362.245	8.36
362.456	80.04
362.667	55.47
362.879	73.9
363.09	90.28
363.301	100.52
363.512	80.04
363.723	-22.36
363.935	59.56
364.146	69.8
364.357	30.89
364.568	49.32
364.779	-83.8
364.99	88.23
365.201	-67.41
365.412	73.9
365.623	84.14
365.834	28.84
366.045	63.66
366.256	88.23
366.467	84.14
366.678	34.99
366.889	10.41
367.1	12.46
367.311	77.99
367.522	4.27
367.733	18.6
367.944	37.03
368.155	8.36
368.366	75.95
368.577	71.85
368.788	53.42
368.999	39.08
369.209	84.14
369.42	88.23
369.631	98.47
369.842	28.84
370.053	57.51
370.264	41.13
370.474	82.09
370.685	90.28
370.896	88.23
371.107	24.75
371.317	61.61
371.528	45.23
371.739	104.62
371.95	57.51
372.16	47.27
372.371	2.22
372.582	86.19
372.792	41.13
373.003	108.71
373.214	108.71
373.424	88.23
373.635	67.75
373.846	34.99
374.056	96.43
374.267	51.37
374.477	16.55
374.688	67.75
374.898	43.18
375.109	84.14
375.319	59.56
375.53	65.71
375.74	30.89
375.951	57.51
376.161	39.08
376.372	172.2
376.582	65.71
376.793	14.51
377.003	86.19
377.214	86.19
377.424	145.58
377.635	92.33
377.845	-24.4
378.055	63.66
378.266	71.85
378.476	47.27
378.686	-3.93
378.897	39.08
379.107	77.99
379.317	77.99
379.528	77.99
379.738	88.23
379.948	69.8
380.158	61.61
380.369	57.51
380.579	61.61
380.789	94.38
380.999	98.47
381.21	121
381.42	102.57
381.63	24.75
381.84	55.47
382.05	145.58
382.261	147.62
382.471	102.57
382.681	112.81
382.891	77.99
383.101	59.56
383.311	55.47
383.521	69.8
383.731	82.09
383.941	32.94
384.151	88.23
384.361	-8.02
384.571	45.23
384.781	34.99
384.991	14.51
385.201	125.1
385.411	116.9
385.621	26.79
385.831	98.47
386.041	73.9
386.251	121
386.461	73.9
386.671	47.27
386.881	92.33
387.091	90.28
387.301	90.28
387.511	61.61
387.72	55.47
387.93	90.28
388.14	69.8
388.35	127.14
388.56	53.42
388.769	57.51
388.979	82.09
389.189	12.46
389.399	61.61
389.609	14.51
389.818	116.9
390.028	94.38
390.238	41.13
390.447	8.36
390.657	123.05
390.867	82.09
391.076	77.99
391.286	129.19
391.496	125.1
391.705	57.51
391.915	98.47
392.125	104.62
392.334	43.18
392.544	82.09
392.753	59.56
392.963	110.76
393.172	37.03
393.382	73.9
393.591	137.38
393.801	37.03
394.01	114.86
394.22	108.71
394.429	118.95
394.639	55.47
394.848	110.76
395.058	172.2
395.267	77.99
395.477	61.61
395.686	26.79
395.895	94.38
396.105	80.04
396.314	174.25
396.524	73.9
396.733	69.8
396.942	164.01
397.152	77.99
397.361	157.86
397.57	51.37
397.78	133.29
397.989	168.1
398.198	194.73
398.407	170.15
398.617	137.38
398.826	188.58
399.035	55.47
399.244	141.48
399.453	178.34
399.663	151.72
399.872	221.35
400.081	73.9
400.29	90.28
400.499	133.29
400.708	139.43
400.917	157.86
401.127	75.95
401.336	73.9
401.545	182.44
401.754	135.34
401.963	219.3
402.172	28.84
402.381	82.09
402.59	151.72
402.799	166.06
403.008	178.34
403.217	151.72
403.426	211.11
403.635	186.54
403.844	114.86
404.053	67.75
404.262	192.68
404.471	190.63
404.68	135.34
404.888	114.86
405.097	178.34
405.306	223.4
405.515	180.39
405.724	196.78
405.933	176.3
406.142	196.78
406.35	172.2
406.559	235.69
406.768	233.64
406.977	229.54
407.185	235.69
407.394	225.45
407.603	245.93
407.812	260.26
408.02	196.78
408.229	280.74
408.438	213.16
408.646	221.35
408.855	262.31
409.064	342.18
409.272	274.6
409.481	276.65
409.69	315.56
409.898	225.45
410.107	311.46
410.315	383.14
410.524	420
410.733	389.28
410.941	338.09
411.15	422.05
411.358	346.28
411.567	436.39
411.775	426.15
411.984	481.44
412.192	477.35
412.401	444.58
412.609	495.78
412.818	532.64
413.026	495.78
413.234	583.84
413.443	600.23
413.651	596.13
413.86	583.84
414.068	575.65
414.276	669.86
414.485	596.13
414.693	698.53
414.901	753.82
415.11	749.73
415.318	751.78
415.526	780.45
415.734	792.73
415.943	868.51
416.151	850.08
416.359	874.65
416.567	905.37
416.776	927.9
416.984	1003.68
417.192	1054.87
417.4	991.39
417.608	1095.83
417.817	1067.16
418.025	1114.27
418.233	1274.01
418.441	1208.47
418.649	1298.58
418.857	1392.79
419.065	1353.88
419.273	1450.13
419.481	1491.09
419.689	1513.62
419.897	1618.07
420.105	1675.41
420.313	1792.14
420.521	1599.63
420.729	1736.85
420.937	1802.38
421.145	1812.62
421.353	1964.17
421.561	2080.91
421.769	2181.26
421.977	2195.59
422.185	2279.56
422.393	2341
422.601	2310.28
422.809	2427.01
423.017	2592.9
423.224	2597
423.432	2732.16
423.64	2615.43
423.848	2875.52
424.056	2863.23
424.263	3088.51
424.471	3088.51
424.679	3174.52
424.887	3369.08
425.094	3371.13
425.302	3395.7
425.51	3545.2
425.718	3725.43
425.925	3618.93
426.133	3876.98
426.341	4051.05
426.548	4167.79
426.756	4210.79
426.964	4239.47
427.171	4522.09
427.379	4573.28
427.586	4669.54
427.794	5017.69
428.001	5152.86
428.209	5314.65
428.417	5152.86
428.624	5415
428.832	5662.8
429.039	5627.99
429.247	5638.23
429.454	6230.09
429.662	6467.66
429.869	6142.03
430.076	6537.29
430.284	6533.19
430.491	6512.71
430.699	7065.66
430.906	7096.38
431.114	7245.88
431.321	7557.18
431.528	7665.72
431.736	8020.02
431.943	8525.86
432.15	8228.91
432.358	8306.73
432.565	8667.17
432.772	8529.96
432.979	9267.23
433.187	9318.43
433.394	9279.52
433.601	10002.45
433.808	9943.06
434.016	9789.46
434.223	10291.21
434.43	10926.08
434.637	10868.74
434.844	11327.49
435.052	11616.25
435.259	11571.19
435.466	11749.37
435.673	11636.73
435.88	12314.61
436.087	12949.48
436.294	13228
436.501	12728.3
436.708	12939.24
436.915	13531.1
437.122	14073.81
437.329	14069.72
437.537	14280.66
437.743	14841.8
437.95	14677.96
438.157	15540.16
438.364	15957.94
438.571	15800.25
438.778	16070.58
438.985	17360.8
439.192	16523.18
439.399	17336.23
439.606	16832.43
439.813	17979.29
440.02	18710.41
440.227	18522
440.433	18685.84
440.64	19179.4
440.847	19101.58
441.054	19386.24
441.261	20909.93
441.467	20395.89
441.674	20856.68
441.881	21831.52
442.088	21796.7
442.294	21380.96
442.501	22206.3
442.708	22576.98
442.914	23310.15
443.121	24151.87
443.328	23936.83
443.534	25429.8
443.741	24805.17
443.948	24256.31
444.154	26271.51
444.361	26169.12
444.568	26285.85
444.774	26296.09
444.981	26736.4
445.187	27311.88
445.394	28491.51
445.6	28317.43
445.807	31080.14
446.013	29257.45
446.22	30133.98
446.426	31356.62
446.633	31385.29
446.839	32585.4
447.046	31485.64
447.252	32753.33
447.459	33054.39
447.665	33085.11
447.871	34369.18
448.078	35759.75
448.284	34201.25
448.491	35239.57
448.697	36699.77
448.903	37238.39
449.11	37269.11
449.316	36841.08
449.522	37267.06
449.728	38338.15
449.935	38563.42
450.141	38682.2
450.347	39466.58
450.553	38151.78
450.76	38925.91
450.966	40207.94
451.172	39761.48
451.378	40818.24
451.584	40390.21
451.791	40560.19
451.997	40592.96
452.203	41600.56
452.409	41375.28
452.615	41934.38
452.821	39738.96
453.027	39689.81
453.233	41379.38
453.44	40017.48
453.646	40504.9
453.852	40738.37
454.058	41268.79
454.264	39775.82
454.47	40816.19
454.676	39536.21
454.882	41264.69
455.088	37699.18
455.294	38522.46
455.5	38862.43
455.705	39032.41
455.911	37752.43
456.117	37224.05
456.323	36580.99
456.529	34805.4
456.735	36066.95
456.941	35432.08
457.147	34455.2
457.352	33801.89
457.558	33140.4
457.764	33463.98
457.97	32732.86
458.176	32036.55
458.381	31876.8
458.587	30467.8
458.793	30633.69
458.999	28985.07
459.204	30879.44
459.41	29945.57
459.616	28110.59
459.821	28389.11
460.027	28110.59
460.233	27528.97
460.438	26173.21
460.644	26441.5
460.85	25265.96
461.055	24778.54
461.261	24938.29
461.466	23377.73
461.672	21995.36
461.878	23897.92
462.083	22351.7
462.289	21915.48
462.494	21749.6
462.7	20774.77
462.905	20230.01
463.111	20815.73
463.316	21006.19
463.522	20488.05
463.727	20383.6
463.932	20397.94
464.138	20250.49
464.343	20496.24
464.549	19939.19
464.754	20215.67
464.959	20256.63
465.165	19994.49
465.37	19316.61
465.575	18745.23
465.781	19695.49
465.986	19722.11
466.191	19107.72
466.397	18356.11
466.602	17688.48
466.807	18390.93
467.012	18522
467.218	18276.24
467.423	18007.96
467.628	18001.82
467.833	18575.25
