Data from USB4F104151__98__12-28-23-867.txt Node

Date: Fri Mar 14 12:28:23 EDT 2025
User: louis
Spectrometer: USB4F10415
Trigger mode: 4
Integration Time (sec): 2.000000E-2
Scans to average: 1
Electric dark correction enabled: true
Nonlinearity correction enabled: false
Boxcar width: 0
XAxis mode: Wavelengths
Number of Pixels in Spectrum: 3648
>>>>>Begin Spectral Data<<<<<
178.204	-32.77
178.424	-32.77
178.644	-32.77
178.864	-106.49
179.084	-94.21
179.304	22.53
179.524	-51.2
179.744	0
179.964	34.82
180.184	61.44
180.404	-53.25
180.624	-51.2
180.844	30.72
181.064	-71.68
181.283	16.38
181.503	0
181.723	61.44
181.943	-12.29
182.163	30.72
182.383	-24.58
182.602	-47.1
182.822	26.62
183.042	10.24
183.262	-43.01
183.482	-18.43
183.701	45.06
183.921	14.34
184.141	-57.34
184.361	-2.05
184.58	-12.29
184.8	-12.29
185.02	-18.43
185.239	65.54
185.459	59.39
185.679	65.54
185.898	-10.24
186.118	12.29
186.338	-67.58
186.557	75.77
186.777	12.29
186.997	73.73
187.216	14.34
187.436	73.73
187.655	-16.38
187.875	36.86
188.095	-2.05
188.314	32.77
188.534	90.11
188.753	-59.39
188.973	51.2
189.192	47.1
189.412	38.91
189.631	114.69
189.851	4.1
190.07	106.49
190.29	38.91
190.509	-45.06
190.729	28.67
190.948	10.24
191.168	28.67
191.387	26.62
191.607	14.34
191.826	10.24
192.045	-22.53
192.265	4.1
192.484	-8.19
192.704	98.3
192.923	2.05
193.142	30.72
193.362	-24.58
193.581	135.17
193.8	6.14
194.02	86.01
194.239	-12.29
194.458	34.82
194.678	-18.43
194.897	8.19
195.116	-43.01
195.335	34.82
195.555	73.73
195.774	57.34
195.993	24.58
196.212	-12.29
196.432	-67.58
196.651	6.14
196.87	26.62
197.089	139.26
197.308	-38.91
197.528	92.16
197.747	2.05
197.966	-28.67
198.185	57.34
198.404	-14.34
198.623	-14.34
198.842	55.3
199.062	47.1
199.281	47.1
199.5	-47.1
199.719	-2.05
199.938	38.91
200.157	24.58
200.376	0
200.595	-16.38
200.814	4.1
201.033	-22.53
201.252	8.19
201.471	57.34
201.69	38.91
201.909	32.77
202.128	65.54
202.347	-22.53
202.566	30.72
202.785	8.19
203.004	79.87
203.223	6.14
203.442	98.3
203.661	38.91
203.879	47.1
204.098	55.3
204.317	18.43
204.536	-32.77
204.755	28.67
204.974	2.05
205.193	16.38
205.411	69.63
205.63	6.14
205.849	-16.38
206.068	18.43
206.287	-28.67
206.505	14.34
206.724	102.4
206.943	26.62
207.162	-22.53
207.381	34.82
207.599	40.96
207.818	2.05
208.037	12.29
208.255	73.73
208.474	34.82
208.693	14.34
208.911	38.91
209.13	30.72
209.349	26.62
209.567	26.62
209.786	22.53
210.005	30.72
210.223	24.58
210.442	-16.38
210.661	-43.01
210.879	32.77
211.098	83.97
211.316	118.78
211.535	-6.14
211.753	75.77
211.972	-30.72
212.191	-38.91
212.409	67.58
212.628	-45.06
212.846	59.39
213.065	34.82
213.283	-22.53
213.502	67.58
213.72	55.3
213.938	20.48
214.157	-40.96
214.375	63.49
214.594	-49.15
214.812	47.1
215.031	86.01
215.249	94.21
215.467	67.58
215.686	-14.34
215.904	14.34
216.122	-14.34
216.341	10.24
216.559	-30.72
216.778	-55.3
216.996	12.29
217.214	18.43
217.432	59.39
217.651	6.14
217.869	-90.11
218.087	40.96
218.306	12.29
218.524	22.53
218.742	18.43
218.96	-14.34
219.179	57.34
219.397	20.48
219.615	59.39
219.833	8.19
220.051	26.62
220.27	26.62
220.488	-26.62
220.706	32.77
220.924	57.34
221.142	-30.72
221.36	24.58
221.578	45.06
221.796	63.49
222.015	-4.1
222.233	47.1
222.451	-10.24
222.669	6.14
222.887	-10.24
223.105	14.34
223.323	38.91
223.541	47.1
223.759	18.43
223.977	14.34
224.195	6.14
224.413	24.58
224.631	45.06
224.849	45.06
225.067	-4.1
225.285	6.14
225.503	43.01
225.721	14.34
225.939	26.62
226.157	47.1
226.375	94.21
226.592	34.82
226.81	-38.91
227.028	14.34
227.246	45.06
227.464	-94.21
227.682	-24.58
227.9	137.21
228.117	4.1
228.335	26.62
228.553	32.77
228.771	14.34
228.989	4.1
229.206	94.21
229.424	55.3
229.642	-57.34
229.86	10.24
230.077	-32.77
230.295	45.06
230.513	40.96
230.731	36.86
230.948	14.34
231.166	8.19
231.384	28.67
231.601	43.01
231.819	6.14
232.037	30.72
232.254	83.97
232.472	-16.38
232.689	32.77
232.907	-24.58
233.125	18.43
233.342	90.11
233.56	40.96
233.777	32.77
233.995	-24.58
234.213	10.24
234.43	63.49
234.648	16.38
234.865	16.38
235.083	2.05
235.3	14.34
235.518	-34.82
235.735	47.1
235.953	18.43
236.17	18.43
236.388	18.43
236.605	26.62
236.822	69.63
237.04	10.24
237.257	34.82
237.475	65.54
237.692	14.34
237.909	77.82
238.127	4.1
238.344	24.58
238.562	38.91
238.779	45.06
238.996	73.73
239.214	18.43
239.431	-32.77
239.648	12.29
239.865	-18.43
240.083	-55.3
240.3	20.48
240.517	45.06
240.735	16.38
240.952	0
241.169	-73.73
241.386	-18.43
241.603	43.01
241.821	-26.62
242.038	24.58
242.255	77.82
242.472	-16.38
242.689	49.15
242.907	-24.58
243.124	57.34
243.341	-90.11
243.558	10.24
243.775	75.77
243.992	-6.14
244.209	8.19
244.426	79.87
244.643	69.63
244.86	30.72
245.078	16.38
245.295	51.2
245.512	63.49
245.729	47.1
245.946	45.06
246.163	106.49
246.38	22.53
246.597	-28.67
246.814	-6.14
247.031	26.62
247.248	-14.34
247.464	-6.14
247.681	32.77
247.898	71.68
248.115	-65.53
248.332	51.2
248.549	104.45
248.766	12.29
248.983	79.87
249.2	45.06
249.417	40.96
249.633	-45.06
249.85	69.63
250.067	2.05
250.284	47.1
250.501	59.39
250.717	98.3
250.934	-8.19
251.151	-55.3
251.368	-12.29
251.585	47.1
251.801	10.24
252.018	2.05
252.235	12.29
252.451	51.2
252.668	34.82
252.885	57.34
253.102	61.44
253.318	2.05
253.535	59.39
253.752	-36.86
253.968	47.1
254.185	2.05
254.401	-32.77
254.618	67.58
254.835	65.54
255.051	102.4
255.268	49.15
255.484	47.1
255.701	18.43
255.917	34.82
256.134	-43.01
256.351	-49.15
256.567	-2.05
256.784	-12.29
257	-28.67
257.217	12.29
257.433	6.14
257.65	81.92
257.866	47.1
258.082	16.38
258.299	20.48
258.515	28.67
258.732	20.48
258.948	-8.19
259.165	38.91
259.381	-8.19
259.597	-20.48
259.814	16.38
260.03	16.38
260.246	26.62
260.463	14.34
260.679	55.3
260.895	-40.96
261.112	-45.06
261.328	43.01
261.544	57.34
261.761	43.01
261.977	49.15
262.193	-8.19
262.409	10.24
262.626	49.15
262.842	30.72
263.058	-22.53
263.274	-6.14
263.49	63.49
263.707	63.49
263.923	65.54
264.139	-10.24
264.355	10.24
264.571	53.25
264.787	81.92
265.004	-30.72
265.22	12.29
265.436	45.06
265.652	-22.53
265.868	-16.38
266.084	24.58
266.3	0
266.516	34.82
266.732	81.92
266.948	-32.77
267.164	4.1
267.38	-34.82
267.596	18.43
267.812	32.77
268.028	2.05
268.244	32.77
268.46	36.86
268.676	-59.39
268.892	90.11
269.108	-71.68
269.324	-20.48
269.54	104.45
269.756	69.63
269.972	18.43
270.188	-24.58
270.403	53.25
270.619	73.73
270.835	43.01
271.051	0
271.267	22.53
271.483	88.06
271.698	67.58
271.914	34.82
272.13	49.15
272.346	155.65
272.562	90.11
272.777	63.49
272.993	32.77
273.209	77.82
273.425	53.25
273.64	-61.44
273.856	43.01
274.072	67.58
274.287	-2.05
274.503	38.91
274.719	34.82
274.934	53.25
275.15	92.16
275.366	-65.53
275.581	-16.38
275.797	0
276.012	65.54
276.228	40.96
276.444	2.05
276.659	47.1
276.875	-55.3
277.09	55.3
277.306	-16.38
277.521	30.72
277.737	26.62
277.952	16.38
278.168	45.06
278.383	-32.77
278.599	24.58
278.814	26.62
279.03	-24.58
279.245	94.21
279.461	129.02
279.676	43.01
279.892	40.96
280.107	32.77
280.322	-2.05
280.538	22.53
280.753	-4.1
280.969	16.38
281.184	-6.14
281.399	90.11
281.615	36.86
281.83	59.39
282.045	-24.58
282.26	83.97
282.476	71.68
282.691	43.01
282.906	79.87
283.122	26.62
283.337	12.29
283.552	47.1
283.767	55.3
283.983	-10.24
284.198	22.53
284.413	49.15
284.628	2.05
284.843	16.38
285.058	110.59
285.274	-47.1
285.489	55.3
285.704	45.06
285.919	24.58
286.134	71.68
286.349	26.62
286.564	-22.53
286.779	12.29
286.995	73.73
287.21	36.86
287.425	49.15
287.64	4.1
287.855	55.3
288.07	-22.53
288.285	0
288.5	96.25
288.715	-2.05
288.93	38.91
289.145	-20.48
289.36	36.86
289.575	40.96
289.79	61.44
290.004	16.38
290.219	34.82
290.434	-4.1
290.649	79.87
290.864	28.67
291.079	65.54
291.294	40.96
291.509	73.73
291.724	-28.67
291.938	36.86
292.153	8.19
292.368	-51.2
292.583	10.24
292.798	6.14
293.012	75.77
293.227	-6.14
293.442	-30.72
293.657	32.77
293.871	22.53
294.086	-18.43
294.301	10.24
294.516	38.91
294.73	36.86
294.945	16.38
295.16	2.05
295.374	32.77
295.589	43.01
295.804	49.15
296.018	61.44
296.233	26.62
296.447	45.06
296.662	8.19
296.877	43.01
297.091	67.58
297.306	-12.29
297.52	4.1
297.735	-4.1
297.949	59.39
298.164	6.14
298.378	-34.82
298.593	36.86
298.807	-18.43
299.022	57.34
299.236	4.1
299.451	-2.05
299.665	24.58
299.88	-12.29
300.094	38.91
300.309	16.38
300.523	-2.05
300.737	12.29
300.952	4.1
301.166	34.82
301.381	26.62
301.595	-30.72
301.809	-18.43
302.024	-8.19
302.238	40.96
302.452	-18.43
302.667	-24.58
302.881	10.24
303.095	47.1
303.309	94.21
303.524	-32.77
303.738	20.48
303.952	24.58
304.166	73.73
304.381	16.38
304.595	43.01
304.809	14.34
305.023	8.19
305.237	8.19
305.452	77.82
305.666	-22.53
305.88	81.92
306.094	47.1
306.308	-36.86
306.522	75.77
306.736	73.73
306.95	94.21
307.164	43.01
307.379	-59.39
307.593	94.21
307.807	16.38
308.021	36.86
308.235	63.49
308.449	-22.53
308.663	-10.24
308.877	90.11
309.091	4.1
309.305	0
309.519	-26.62
309.733	79.87
309.947	-38.91
310.161	90.11
310.374	61.44
310.588	40.96
310.802	49.15
311.016	69.63
311.23	30.72
311.444	8.19
311.658	30.72
311.872	28.67
312.085	98.3
312.299	67.58
312.513	92.16
312.727	118.78
312.941	-20.48
313.154	122.88
313.368	22.53
313.582	16.38
313.796	45.06
314.009	10.24
314.223	67.58
314.437	77.82
314.651	55.3
314.864	-20.48
315.078	67.58
315.292	-12.29
315.505	-24.58
315.719	83.97
315.933	49.15
316.146	36.86
316.36	32.77
316.573	65.54
316.787	49.15
317.001	24.58
317.214	8.19
317.428	8.19
317.641	18.43
317.855	-20.48
318.068	59.39
318.282	0
318.495	81.92
318.709	40.96
318.922	4.1
319.136	26.62
319.349	53.25
319.563	2.05
319.776	6.14
319.99	38.91
320.203	32.77
320.417	32.77
320.63	57.34
320.843	71.68
321.057	71.68
321.27	-14.34
321.483	6.14
321.697	116.73
321.91	40.96
322.124	6.14
322.337	47.1
322.55	43.01
322.763	32.77
322.977	34.82
323.19	-2.05
323.403	51.2
323.617	47.1
323.83	40.96
324.043	-2.05
324.256	0
324.469	-16.38
324.683	65.54
324.896	-8.19
325.109	57.34
325.322	-16.38
325.535	38.91
325.748	40.96
325.962	-28.67
326.175	-16.38
326.388	-16.38
326.601	34.82
326.814	94.21
327.027	-14.34
327.24	26.62
327.453	10.24
327.666	92.16
327.879	12.29
328.092	65.54
328.305	45.06
328.518	40.96
328.731	38.91
328.944	79.87
329.157	53.25
329.37	14.34
329.583	6.14
329.796	61.44
330.009	24.58
330.222	18.43
330.435	73.73
330.648	-22.53
330.861	-2.05
331.073	2.05
331.286	71.68
331.499	40.96
331.712	26.62
331.925	61.44
332.138	32.77
332.35	10.24
332.563	2.05
332.776	16.38
332.989	69.63
333.202	45.06
333.414	0
333.627	18.43
333.84	63.49
334.053	49.15
334.265	77.82
334.478	49.15
334.691	45.06
334.903	-24.58
335.116	0
335.329	92.16
335.541	40.96
335.754	98.3
335.966	-20.48
336.179	-2.05
336.392	36.86
336.604	67.58
336.817	12.29
337.029	30.72
337.242	88.06
337.454	12.29
337.667	47.1
337.88	71.68
338.092	20.48
338.305	36.86
338.517	38.91
338.729	63.49
338.942	12.29
339.154	55.3
339.367	34.82
339.579	69.63
339.792	30.72
340.004	24.58
340.217	-24.58
340.429	90.11
340.641	36.86
340.854	-24.58
341.066	28.67
341.278	67.58
341.491	34.82
341.703	-16.38
341.915	20.48
342.128	67.58
342.34	118.78
342.552	49.15
342.764	12.29
342.977	71.68
343.189	53.25
343.401	108.54
343.613	-22.53
343.826	67.58
344.038	-8.19
344.25	-2.05
344.462	6.14
344.674	26.62
344.886	79.87
345.099	-51.2
345.311	77.82
345.523	-57.34
345.735	28.67
345.947	18.43
346.159	14.34
346.371	14.34
346.583	22.53
346.795	38.91
347.007	57.34
347.219	65.54
347.431	-24.58
347.643	24.58
347.855	-4.1
348.067	-10.24
348.279	49.15
348.491	61.44
348.703	77.82
348.915	-18.43
349.127	-47.1
349.339	16.38
349.551	12.29
349.763	40.96
349.975	79.87
350.187	57.34
350.399	-43.01
350.61	43.01
350.822	-28.67
351.034	-16.38
351.246	30.72
351.458	45.06
351.669	53.25
351.881	10.24
352.093	-20.48
352.305	43.01
352.517	49.15
352.728	30.72
352.94	0
353.152	-26.62
353.363	-8.19
353.575	67.58
353.787	26.62
353.999	75.77
354.21	20.48
354.422	2.05
354.633	96.25
354.845	49.15
355.057	-32.77
355.268	73.73
355.48	114.69
355.692	22.53
355.903	83.97
356.115	40.96
356.326	34.82
356.538	30.72
356.749	63.49
356.961	20.48
357.172	96.25
357.384	81.92
357.595	38.91
357.807	88.06
358.018	8.19
358.23	40.96
358.441	26.62
358.653	24.58
358.864	34.82
359.075	83.97
359.287	124.93
359.498	65.54
359.709	-18.43
359.921	71.68
360.132	4.1
360.344	40.96
360.555	120.83
360.766	65.54
360.977	-24.58
361.189	92.16
361.4	2.05
361.611	67.58
361.823	57.34
362.034	65.54
362.245	51.2
362.456	67.58
362.667	-26.62
362.879	28.67
363.09	34.82
363.301	106.49
363.512	63.49
363.723	12.29
363.935	34.82
364.146	45.06
364.357	69.63
364.568	43.01
364.779	14.34
364.99	124.93
365.201	-12.29
365.412	106.49
365.623	-4.1
365.834	124.93
366.045	137.21
366.256	55.3
366.467	22.53
366.678	28.67
366.889	12.29
367.1	-16.38
367.311	61.44
367.522	10.24
367.733	8.19
367.944	24.58
368.155	-12.29
368.366	32.77
368.577	108.54
368.788	63.49
368.999	59.39
369.209	32.77
369.42	53.25
369.631	40.96
369.842	16.38
370.053	81.92
370.264	112.64
370.474	28.67
370.685	40.96
370.896	-20.48
371.107	73.73
371.317	67.58
371.528	110.59
371.739	14.34
371.95	57.34
372.16	45.06
372.371	-14.34
372.582	10.24
372.792	55.3
373.003	63.49
373.214	0
373.424	53.25
373.635	32.77
373.846	22.53
374.056	49.15
374.267	51.2
374.477	61.44
374.688	43.01
374.898	79.87
375.109	-38.91
375.319	131.07
375.53	75.77
375.74	18.43
375.951	12.29
376.161	53.25
376.372	124.93
376.582	28.67
376.793	-14.34
377.003	16.38
377.214	22.53
377.424	-16.38
377.635	96.25
377.845	-51.2
378.055	40.96
378.266	-34.82
378.476	63.49
378.686	104.45
378.897	12.29
379.107	4.1
379.317	30.72
379.528	118.78
379.738	77.82
379.948	34.82
380.158	59.39
380.369	14.34
380.579	79.87
380.789	28.67
380.999	126.97
381.21	34.82
381.42	86.01
381.63	36.86
381.84	104.45
382.05	4.1
382.261	149.5
382.471	32.77
382.681	59.39
382.891	71.68
383.101	49.15
383.311	45.06
383.521	-14.34
383.731	16.38
383.941	28.67
384.151	77.82
384.361	10.24
384.571	88.06
384.781	102.4
384.991	139.26
385.201	124.93
385.411	69.63
385.621	67.58
385.831	40.96
386.041	4.1
386.251	98.3
386.461	167.93
386.671	61.44
386.881	-2.05
387.091	69.63
387.301	83.97
387.511	26.62
387.72	20.48
387.93	94.21
388.14	16.38
388.35	67.58
388.56	73.73
388.769	92.16
388.979	122.88
389.189	18.43
389.399	34.82
389.609	135.17
389.818	61.44
390.028	67.58
390.238	129.02
390.447	8.19
390.657	53.25
390.867	77.82
391.076	43.01
391.286	4.1
391.496	57.34
391.705	-8.19
391.915	65.54
392.125	118.78
392.334	12.29
392.544	4.1
392.753	71.68
392.963	47.1
393.172	73.73
393.382	104.45
393.591	129.02
393.801	108.54
394.01	129.02
394.22	75.77
394.429	92.16
394.639	49.15
394.848	4.1
395.058	53.25
395.267	36.86
395.477	65.54
395.686	38.91
395.895	114.69
396.105	79.87
396.314	94.21
396.524	126.97
396.733	86.01
396.942	81.92
397.152	86.01
397.361	20.48
397.57	63.49
397.78	65.54
397.989	69.63
398.198	137.21
398.407	98.3
398.617	49.15
398.826	88.06
399.035	94.21
399.244	145.41
399.453	112.64
399.663	159.74
399.872	69.63
400.081	75.77
400.29	118.78
400.499	67.58
400.708	81.92
400.917	112.64
401.127	92.16
401.336	34.82
401.545	206.84
401.754	118.78
401.963	106.49
402.172	159.74
402.381	81.92
402.59	63.49
402.799	106.49
403.008	104.45
403.217	137.21
403.426	151.55
403.635	96.25
403.844	92.16
404.053	81.92
404.262	86.01
404.471	174.08
404.68	145.41
404.888	135.17
405.097	65.54
405.306	98.3
405.515	118.78
405.724	137.21
405.933	153.6
406.142	147.45
406.35	200.7
406.559	141.31
406.768	180.22
406.977	116.73
407.185	221.18
407.394	182.27
407.603	208.89
407.812	194.56
408.02	243.71
408.229	239.61
408.438	233.47
408.646	161.79
408.855	243.71
409.064	217.08
409.272	194.56
409.481	233.47
409.69	253.95
409.898	264.19
410.107	194.56
410.315	286.72
410.524	274.43
410.733	342.01
410.941	221.18
411.15	333.82
411.358	348.15
411.567	358.39
411.775	325.63
411.984	352.25
412.192	403.45
412.401	344.06
412.609	438.27
412.818	456.7
413.026	454.65
413.234	499.7
413.443	446.46
413.651	616.44
413.86	475.13
414.068	542.71
414.276	487.42
414.485	575.48
414.693	620.53
414.901	579.58
415.11	724.98
415.318	608.25
415.526	591.86
415.734	788.47
415.943	772.08
416.151	778.23
416.359	774.13
416.567	737.27
416.776	858.1
416.984	862.19
417.192	870.39
417.4	825.33
417.608	917.49
417.817	960.5
418.025	1085.42
418.233	1167.34
418.441	983.02
418.649	1183.73
418.857	1048.56
419.065	1183.73
419.273	1130.48
419.481	1210.35
419.689	1386.47
419.897	1370.09
420.105	1353.71
420.313	1380.33
420.521	1490.92
420.729	1441.77
420.937	1615.85
421.145	1597.42
421.353	1621.99
421.561	1820.64
421.769	1902.56
421.977	1896.42
422.185	1892.32
422.393	1943.52
422.601	2033.63
422.809	2004.96
423.017	2119.65
423.224	2107.36
423.432	2428.89
423.64	2334.68
423.848	2326.49
424.056	2375.64
424.263	2656.22
424.471	2711.51
424.679	2727.89
424.887	2834.39
425.094	2883.54
425.302	2969.55
425.51	3102.67
425.718	2942.93
425.925	3094.48
426.133	3217.36
426.341	3403.72
426.548	3600.33
426.756	3608.52
426.964	3639.24
427.171	3821.51
427.379	3919.81
427.586	3954.63
427.794	3921.86
428.001	4319.17
428.209	4540.35
428.417	4306.88
428.624	4739
428.832	4851.64
429.039	4671.42
429.247	4757.43
429.454	5072.82
429.662	5504.94
429.869	5134.26
430.076	5638.06
430.284	5337.01
430.491	5660.59
430.699	6135.71
430.906	5849
431.114	6043.56
431.321	6203.3
431.528	6582.17
431.736	6870.94
431.943	6877.08
432.15	6911.89
432.358	7065.49
432.565	7272.34
432.772	7311.25
432.979	7600.01
433.187	7901.06
433.394	7831.43
433.601	8607.61
433.808	8482.69
434.016	8478.59
434.223	8748.92
434.43	9449.33
434.637	9176.95
434.844	9629.55
435.052	9885.55
435.259	9709.42
435.466	9834.35
435.673	9756.52
435.88	10479.46
436.087	10858.33
436.294	10985.3
436.501	10639.2
436.708	10999.64
436.915	11327.32
437.122	11663.18
437.329	11779.92
437.537	12349.25
437.743	12519.23
437.95	12267.33
438.157	12883.77
438.364	13401.91
438.571	13322.04
438.778	13346.61
438.985	14751.52
439.192	13993.77
439.399	14628.64
439.606	14169.9
439.813	15073.05
440.02	16193.29
440.227	15433.49
440.433	15654.67
440.64	15916.81
440.847	16058.12
441.054	16414.47
441.261	17276.66
441.467	17096.44
441.674	17512.18
441.881	18142.96
442.088	18142.96
442.294	17952.49
442.501	18460.39
442.708	18984.67
442.914	19545.81
443.121	20221.64
443.328	19832.53
443.534	21044.93
443.741	20557.51
443.948	20379.34
444.154	21909.17
444.361	21470.9
444.568	21778.1
444.774	21909.17
444.981	22183.6
445.187	22955.68
445.394	23768.73
445.6	23416.47
445.807	25642.62
446.013	24641.16
446.22	24974.98
446.426	26058.35
446.633	26164.85
446.839	27176.55
447.046	26197.62
447.252	27547.23
447.459	27522.65
447.665	27313.76
447.871	28585.55
448.078	30031.41
448.284	28581.45
448.491	29492.8
448.697	30391.86
448.903	30649.9
449.11	31180.32
449.316	30791.21
449.522	31065.64
449.728	31718.94
449.935	32165.4
450.141	32030.23
450.347	32675.34
450.553	32024.09
450.76	32198.16
450.966	33365.51
451.172	32894.47
451.378	33656.32
451.584	32994.82
451.791	34004.47
451.997	33811.96
452.203	34477.55
452.409	34520.56
452.615	34323.96
452.821	33293.83
453.027	32796.17
453.233	34573.81
453.44	33011.21
453.646	33545.73
453.852	33758.72
454.058	34063.86
454.264	32820.75
454.47	33658.37
454.676	33093.13
454.882	34092.54
455.088	31045.16
455.294	31899.16
455.5	32050.71
455.705	32550.42
455.911	31381.03
456.117	30721.58
456.323	30398
456.529	28663.37
456.735	29933.11
456.941	29060.68
457.147	28573.26
457.352	27795.03
457.558	27663.96
457.764	27549.28
457.97	27141.73
458.176	26551.91
458.381	26420.84
458.587	24786.57
458.793	25163.39
458.999	23742.1
459.204	25575.03
459.41	24858.24
459.616	23162.53
459.821	23303.84
460.027	23133.85
460.233	22658.73
460.438	21434.04
460.644	22042.29
460.85	20809.41
461.055	20436.68
461.261	19922.64
461.466	18855.65
461.672	18173.67
461.878	19582.68
462.083	18308.84
462.289	18112.24
462.494	17637.11
462.7	17000.19
462.905	16555.78
463.111	17184.51
463.316	17196.79
463.522	17114.87
463.727	16852.73
463.932	16789.25
464.138	16697.09
464.343	16723.71
464.549	16181
464.754	16920.32
464.959	16570.12
465.165	16353.03
465.37	15830.8
465.575	15394.58
465.781	16070.41
465.986	16056.07
466.191	15482.64
466.397	15093.53
466.602	14583.59
466.807	15038.23
467.012	14966.56
467.218	14995.23
467.423	14800.67
467.628	14917.4
467.833	15421.2
468.038	14964.51
